EEG 1,EEG 2,EEG 3,EEG 4,EEG 5,EEG 6,EEG 7,EEG 8,Accelerometer X,Accelerometer Y,Accelerometer Z,Gyroscope X,Gyroscope Y,Gyroscope Z,Battery Level,Counter,Validation Indicator
-1276.248,-7075.456,-2288.279,166.519,-7.211,3584.320,700.602,-5439.273,-0.134,0.988,-0.068,0.000,0.000,0.000,66.667,1.000,1.000
-8843.283,-49816.740,-16091.120,2128.984,-1332.309,25167.637,3108.126,-38057.442,-0.127,0.999,-0.080,0.000,0.000,0.000,66.667,2.000,1.000
-29264.661,-164203.307,-55707.305,12457.514,-8025.953,84007.322,2490.320,-125465.225,-0.127,1.003,-0.085,0.000,0.000,0.000,66.667,3.000,1.000
-62396.985,-338733.464,-132983.368,42487.044,-19340.987,182295.575,-17450.579,-264027.987,-0.130,1.004,-0.088,0.000,0.000,0.000,66.667,4.000,1.000
-95139.168,-488743.148,-254618.126,94659.445,-17260.818,296432.140,-78851.466,-405806.963,-0.130,1.005,-0.087,-0.580,-0.366,0.458,66.667,5.000,1.000
-105136.048,-509475.092,-406209.047,150690.384,26456.194,391764.632,-189962.969,-489886.342,-0.132,1.006,-0.091,-4.272,-3.510,3.326,66.667,6.000,1.000
-72590.853,-353734.152,-520570.701,188647.580,123871.564,440937.389,-317050.217,-478725.227,-0.131,1.007,-0.088,-1.709,-2.167,0.977,66.667,7.000,1.000
11488.464,-59368.307,-497070.890,208483.962,256664.493,434942.862,-378338.974,-373885.667,-0.131,1.007,-0.091,-0.977,-1.770,0.275,66.667,8.000,1.000
141012.262,276976.617,-285819.859,227202.795,386052.490,386392.904,-294084.097,-213805.242,-0.128,1.004,-0.088,-0.854,-1.831,0.000,66.667,9.000,1.000
289535.333,545836.092,62683.204,257232.199,472572.976,322369.301,-54785.101,-55202.813,-0.126,1.002,-0.091,-0.763,-1.984,-0.092,66.667,10.000,1.000
417287.279,675424.082,431320.301,298407.412,494106.413,268467.447,265533.626,56927.465,-0.128,0.999,-0.094,-0.702,-1.923,0.031,66.667,11.000,1.000
492522.582,666637.069,700870.158,340346.525,456076.519,235020.046,553214.199,111432.266,-0.125,0.998,-0.094,-0.580,-1.923,0.092,66.667,12.000,1.000
505367.153,580485.582,801238.098,365724.850,386371.160,216476.476,710640.804,127302.684,-0.124,1.001,-0.092,-0.488,-1.831,0.153,66.667,13.000,1.000
464076.881,483476.335,736575.927,358134.791,314466.155,201504.053,698794.280,129840.145,-0.124,1.002,-0.091,-0.458,-1.923,0.214,66.667,14.000,1.000
384478.989,402352.985,573478.723,312907.951,251193.243,180827.119,552103.998,131322.478,-0.125,1.003,-0.090,-0.397,-1.923,0.366,66.667,15.000,1.000
284138.039,327707.997,395773.020,240595.849,188515.180,147676.312,352202.630,131827.802,-0.126,1.003,-0.095,-0.580,-1.953,0.397,66.667,16.000,1.000
180653.211,248886.130,256363.704,158848.392,116834.423,97740.615,175963.661,131139.545,-0.124,1.004,-0.094,-0.610,-1.923,0.427,66.667,17.000,1.000
88880.033,173139.186,162583.175,80603.754,39154.369,32361.097,58961.521,133329.964,-0.123,1.004,-0.093,-0.671,-1.892,0.458,66.667,18.000,1.000
17833.991,113152.884,99755.933,10733.954,-31021.214,-39133.386,-1938.614,140319.460,-0.120,1.001,-0.093,-0.610,-1.923,0.549,66.667,19.000,1.000
-29723.676,69513.294,59608.595,-47330.269,-81924.475,-102120.226,-23474.520,146823.602,-0.118,0.999,-0.094,-0.519,-1.831,0.549,66.667,20.000,1.000
-55875.096,33299.566,42716.692,-87121.864,-111714.935,-144416.325,-19931.006,145614.384,-0.118,1.000,-0.094,-0.427,-1.770,0.549,66.667,21.000,1.000
-66594.898,890.710,42505.108,-104970.339,-126468.357,-163884.379,-5238.714,136361.962,-0.119,1.000,-0.094,-0.427,-1.648,0.671,66.667,22.000,1.000
-70574.012,-22111.981,40598.632,-107639.505,-133381.970,-168929.212,3454.098,126112.427,-0.119,1.000,-0.096,-0.549,-1.587,0.641,66.667,23.000,1.000
-75940.994,-32072.246,22778.971,-109119.474,-137067.903,-170976.709,-6150.988,120932.938,-0.120,1.003,-0.095,-0.458,-1.526,0.580,66.667,24.000,1.000
-86248.535,-35966.745,-6360.619,-118532.224,-140394.192,-176218.444,-31024.714,119694.039,-0.117,1.002,-0.095,-0.305,-1.465,0.488,66.667,25.000,1.000
-99569.901,-44860.379,-30491.004,-133445.568,-145752.582,-184082.454,-56026.709,117232.576,-0.119,1.004,-0.094,-0.336,-1.465,0.488,66.667,26.000,1.000
-111854.607,-61441.419,-41254.365,-145979.238,-154078.897,-191859.964,-69375.421,111576.568,-0.118,1.002,-0.091,-0.427,-1.404,0.366,66.667,27.000,1.000
-121010.173,-78301.275,-45702.508,-153009.383,-163588.332,-198784.561,-72667.918,105672.809,-0.118,1.000,-0.093,-0.397,-1.312,0.275,66.667,28.000,1.000
-127698.568,-88262.988,-54290.706,-158057.245,-171012.380,-205469.401,-75010.598,102484.956,-0.121,1.000,-0.097,-0.427,-1.343,0.275,66.667,29.000,1.000
-133083.891,-92593.764,-67285.565,-164566.532,-174538.322,-211311.993,-80751.100,100902.771,-0.119,1.001,-0.092,-0.458,-1.282,0.092,66.667,30.000,1.000
-137095.206,-97498.116,-76746.536,-170914.383,-175149.090,-214359.774,-86300.127,97649.798,-0.115,1.000,-0.094,-0.488,-1.282,-0.061,66.667,31.000,1.000
-139200.854,-105368.670,-78877.398,-173376.709,-175029.602,-213782.019,-87677.741,91825.936,-0.114,1.002,-0.094,-0.549,-1.129,-0.183,66.667,32.000,1.000
-139950.378,-112660.512,-79063.928,-171837.277,-175221.068,-211256.118,-86854.652,85821.390,-0.115,1.002,-0.091,-0.519,-1.099,-0.336,66.667,33.000,1.000
-140778.570,-115771.779,-83993.595,-170128.128,-175174.657,-209244.497,-88733.264,81937.712,-0.116,1.003,-0.093,-0.610,-1.007,-0.336,66.667,34.000,1.000
-142344.095,-115934.569,-92857.670,-171053.084,-174148.134,-208411.670,-94191.094,79625.403,-0.117,1.002,-0.096,-0.702,-1.038,-0.458,66.667,35.000,1.000
-143785.477,-117040.625,-99221.673,-173159.458,-172318.195,-207379.724,-99028.257,76674.808,-0.118,1.002,-0.093,-0.580,-1.007,-0.549,66.667,36.000,1.000
-143908.635,-120434.584,-99801.999,-173189.837,-170380.728,-204791.936,-99608.876,72184.412,-0.118,1.003,-0.092,-0.671,-0.854,-0.702,66.667,37.000,1.000
-142662.089,-123791.549,-98058.459,-170350.383,-168538.816,-200883.444,-97183.414,67344.164,-0.118,1.003,-0.094,-0.732,-0.793,-0.854,66.667,38.000,1.000
-141014.291,-124678.236,-98881.005,-166814.312,-166297.728,-196830.572,-95646.653,63549.743,-0.119,1.004,-0.091,-0.793,-0.763,-0.977,66.667,39.000,1.000
-139608.894,-123457.721,-102449.338,-164513.873,-163167.746,-193130.888,-96516.112,60712.390,-0.121,1.005,-0.089,-0.854,-0.916,-1.099,66.667,40.000,1.000
-138082.932,-122204.102,-105004.044,-162886.628,-159259.350,-189170.457,-97727.422,57727.619,-0.119,1.004,-0.089,-0.854,-0.916,-1.160,66.667,41.000,1.000
-135802.569,-121941.431,-104274.235,-160161.830,-155112.573,-184252.629,-96948.229,54000.602,-0.120,1.002,-0.090,-0.946,-0.763,-1.221,66.667,42.000,1.000
-132822.720,-121893.088,-101979.027,-155857.615,-151115.393,-178542.100,-94466.949,49976.084,-0.121,1.002,-0.089,-0.916,-0.702,-1.312,66.667,43.000,1.000
-129772.336,-120955.531,-100956.692,-151150.693,-147202.380,-172797.935,-92281.394,46369.360,-0.119,0.998,-0.090,-0.916,-0.641,-1.404,66.667,44.000,1.000
-126979.891,-118969.128,-101571.157,-147141.770,-143045.072,-167445.205,-91357.303,43357.455,-0.118,0.995,-0.091,-0.885,-0.641,-1.495,66.667,45.000,1.000
-124110.557,-116516.709,-101875.428,-143614.937,-138433.322,-162192.660,-90751.537,40581.502,-0.118,0.992,-0.093,-0.671,-0.519,-1.556,66.667,46.000,1.000
-120721.676,-114154.374,-100425.124,-139648.432,-133480.601,-156511.968,-89156.706,37628.727,-0.119,0.992,-0.094,-0.549,-0.336,-1.587,66.667,47.000,1.000
-116871.690,-112078.805,-97782.866,-134855.627,-128508.922,-150269.603,-86450.917,34374.345,-0.118,0.993,-0.092,-0.305,-0.214,-1.648,66.667,48.000,1.000
-112982.981,-110115.808,-95383.211,-129652.353,-123728.183,-143812.932,-83532.169,31029.187,-0.120,0.992,-0.095,-0.092,-0.031,-1.709,66.667,49.000,1.000
-109265.354,-107769.823,-93826.428,-124589.701,-119013.407,-137549.626,-81155.671,27973.988,-0.121,0.991,-0.096,0.122,0.000,-1.709,66.667,50.000,1.000
-105524.410,-104608.824,-92579.872,-119816.013,-114044.667,-131545.509,-79282.209,25417.449,-0.122,0.991,-0.098,0.275,0.061,-1.801,66.667,51.000,1.000
-101524.119,-100889.504,-90828.137,-115129.531,-108708.177,-125519.801,-77337.418,23110.384,-0.121,0.994,-0.097,0.458,0.153,-1.617,66.667,52.000,1.000
-97317.725,-97513.709,-88235.463,-110254.597,-103291.810,-119186.107,-74812.539,20535.153,-0.121,0.998,-0.094,0.488,0.366,-1.709,66.667,53.000,1.000
-93124.902,-94974.678,-85122.503,-105032.589,-98176.405,-112582.158,-71694.027,17527.659,-0.120,1.000,-0.096,0.702,0.427,-1.740,66.667,54.000,1.000
-89021.981,-92555.587,-82195.709,-99562.551,-93357.597,-106050.924,-68503.676,14579.582,-0.122,1.001,-0.097,0.732,0.488,-1.801,66.667,55.000,1.000
-84899.462,-89115.926,-79945.297,-94208.610,-88428.593,-99871.410,-65841.908,12280.807,-0.125,1.004,-0.098,0.732,0.458,-1.740,66.667,56.000,1.000
-80675.729,-84672.419,-78062.359,-89271.822,-83107.251,-93930.184,-63712.304,10512.115,-0.125,1.006,-0.099,0.671,0.580,-1.801,66.667,57.000,1.000
-76409.625,-80568.585,-75622.267,-84574.011,-77640.695,-87843.953,-61398.540,8513.251,-0.123,1.006,-0.101,0.580,0.610,-1.617,66.667,58.000,1.000
-72183.570,-77746.213,-72159.439,-79575.041,-72517.748,-81438.741,-58270.070,5869.876,-0.125,1.008,-0.103,0.519,0.671,-1.526,66.667,59.000,1.000
-67988.820,-75382.096,-68417.815,-74063.380,-67830.746,-75007.134,-54660.716,3126.618,-0.125,1.009,-0.098,0.488,0.580,-1.495,66.667,60.000,1.000
-63786.611,-71906.094,-65575.638,-68542.484,-63143.181,-68975.398,-51581.402,1108.740,-0.126,1.008,-0.099,0.244,0.641,-1.404,66.667,61.000,1.000
-59607.354,-67167.002,-63693.820,-63653.861,-58074.265,-63360.713,-49433.768,-207.363,-0.126,1.008,-0.100,0.183,0.702,-1.282,66.667,62.000,1.000
-55507.295,-62746.938,-61482.916,-59298.241,-52829.329,-57732.718,-47388.747,-1714.650,-0.125,1.009,-0.098,0.031,0.641,-1.221,66.667,63.000,1.000
-51464.619,-59854.231,-57948.659,-54694.722,-47944.512,-51774.310,-44412.442,-3983.781,-0.128,1.009,-0.096,-0.092,0.549,-1.221,66.667,64.000,1.000
-47408.727,-57636.397,-53819.968,-49421.075,-43571.759,-45722.546,-40686.100,-6461.844,-0.127,1.012,-0.093,-0.336,0.488,-1.129,66.667,65.000,1.000
-43351.097,-54303.515,-50696.001,-44048.156,-39273.479,-40081.365,-37454.521,-8198.038,-0.129,1.013,-0.091,-0.519,0.427,-0.916,66.667,66.000,1.000
-39398.922,-49590.341,-48896.785,-39421.683,-34617.599,-34957.716,-35380.405,-9142.534,-0.128,1.012,-0.094,-0.732,0.305,-0.824,66.667,67.000,1.000
-35604.281,-45159.799,-46946.620,-35505.073,-29769.444,-29911.579,-33604.403,-10233.004,-0.129,1.012,-0.093,-0.977,0.244,-0.671,66.667,68.000,1.000
-31874.030,-42344.147,-43530.592,-31391.665,-25272.571,-24543.607,-30867.405,-12123.296,-0.130,1.010,-0.095,-1.099,0.183,-0.580,66.667,69.000,1.000
-28098.091,-40317.641,-39324.771,-26533.306,-21315.980,-19040.921,-27233.735,-14288.687,-0.131,1.009,-0.092,-1.221,-0.061,-0.458,66.667,70.000,1.000
-24322.888,-37230.903,-36138.353,-21516.501,-17486.453,-13936.720,-24045.052,-15742.583,-0.131,1.008,-0.094,-1.251,-0.183,-0.397,66.667,71.000,1.000
-20705.126,-32751.150,-34459.653,-17285.518,-13338.613,-9396.263,-22111.764,-16384.849,-0.133,1.006,-0.090,-1.465,-0.305,-0.214,66.667,72.000,1.000
-17293.340,-28510.351,-32764.192,-13851.320,-8999.392,-4996.161,-20598.356,-17132.029,-0.134,1.004,-0.091,-1.556,-0.549,-0.214,66.667,73.000,1.000
-13951.017,-25860.804,-29582.340,-10268.403,-4987.690,-299.793,-18152.630,-18659.767,-0.135,1.004,-0.091,-1.556,-0.763,-0.244,66.667,74.000,1.000
-10546.731,-24043.340,-25515.935,-5929.500,-1508.975,4551.082,-14752.094,-20490.686,-0.137,1.002,-0.089,-1.587,-1.007,-0.305,66.667,75.000,1.000
-7148.436,-21265.930,-22425.843,-1401.109,1809.800,9030.238,-11736.972,-21666.075,-0.136,1.002,-0.089,-1.587,-1.282,-0.336,66.667,76.000,1.000
-3938.305,-17164.050,-20894.538,2352.370,5399.305,12939.264,-9982.624,-22056.653,-0.137,0.998,-0.084,-1.587,-1.556,-0.336,66.667,77.000,1.000
-958.718,-13259.166,-19444.694,5286.090,9167.025,16667.729,-8717.426,-22516.331,-0.135,1.000,-0.082,-1.495,-1.770,-0.458,66.667,78.000,1.000
1951.094,-10845.329,-16573.548,8323.229,12640.284,20656.789,-6594.092,-23700.766,-0.135,0.999,-0.084,-1.526,-1.953,-0.519,66.667,79.000,1.000
4931.175,-9250.538,-12796.004,12082.367,15614.134,24805.354,-3526.092,-25190.916,-0.134,0.997,-0.086,-1.465,-2.197,-0.580,66.667,80.000,1.000
7901.713,-6817.462,-9910.677,16042.388,18413.822,28619.940,-778.472,-26097.441,-0.131,0.996,-0.088,-1.343,-2.350,-0.580,66.667,81.000,1.000
10671.026,-3177.731,-8538.452,19274.926,21435.705,31888.022,774.084,-26276.699,-0.131,0.993,-0.085,-1.282,-2.502,-0.641,66.667,82.000,1.000
13201.690,304.756,-7316.418,21711.336,24614.097,34952.821,1815.359,-26494.241,-0.130,0.992,-0.088,-1.099,-2.747,-0.763,66.667,83.000,1.000
15661.783,2442.964,-4798.662,24208.430,27531.129,38233.633,3615.848,-27359.317,-0.129,0.995,-0.092,-0.916,-2.808,-0.824,66.667,84.000,1.000
18189.657,3810.098,-1410.555,27359.903,29991.131,41662.381,6301.189,-28518.114,-0.125,0.995,-0.090,-0.763,-2.838,-0.793,66.667,85.000,1.000
20701.914,5881.676,1189.090,30705.143,32268.715,44794.684,8724.849,-29177.213,-0.125,0.996,-0.089,-0.549,-2.808,-0.854,66.667,86.000,1.000
23011.376,9011.733,2385.383,33391.228,34717.630,47420.453,10057.564,-29188.780,-0.126,0.998,-0.089,-0.305,-2.869,-0.854,66.667,87.000,1.000
25087.514,12021.354,3389.628,35337.289,37298.015,49834.539,10885.032,-29213.706,-0.124,0.999,-0.091,-0.031,-2.869,-0.885,66.667,88.000,1.000
27096.380,13861.973,5533.665,37309.517,39655.482,52421.450,12358.640,-29794.949,-0.122,0.997,-0.091,0.061,-2.808,-0.885,66.667,89.000,1.000
29169.128,15006.314,8479.507,39854.253,41612.236,55141.518,14628.174,-30642.464,-0.121,0.998,-0.092,0.183,-2.716,-0.793,66.667,90.000,1.000
31224.351,16723.110,10753.653,42578.432,43391.749,57607.992,16693.175,-31072.017,-0.123,0.997,-0.094,0.366,-2.747,-0.641,66.667,91.000,1.000
33086.683,19336.452,11774.965,44726.478,45296.859,59621.764,17799.929,-30941.244,-0.122,1.000,-0.095,0.458,-2.625,-0.671,66.667,92.000,1.000
34729.653,21857.657,12581.160,46211.414,47305.284,61425.787,18432.636,-30804.120,-0.123,1.000,-0.095,0.732,-2.472,-0.519,66.667,93.000,1.000
36306.154,23388.059,14352.069,47693.497,49123.498,63357.859,19596.719,-31130.560,-0.125,1.000,-0.094,0.793,-2.472,-0.458,66.667,94.000,1.000
37933.235,24303.514,16829.088,49656.173,50594.614,65399.666,21450.246,-31692.309,-0.128,0.999,-0.094,0.671,-2.441,-0.305,66.667,95.000,1.000
39534.919,25662.477,18747.629,51774.664,51895.659,67226.204,23147.762,-31917.773,-0.127,1.000,-0.101,0.824,-2.502,-0.275,66.667,96.000,1.000
40954.575,27754.897,19581.903,53401.598,53280.296,68658.190,24028.178,-31674.338,-0.130,0.997,-0.099,0.946,-2.533,-0.214,66.667,97.000,1.000
42172.145,29781.318,20194.176,54450.056,54742.005,69890.679,24479.037,-31410.378,-0.133,0.999,-0.096,1.129,-2.625,-0.092,66.667,98.000,1.000
43326.610,30997.709,21597.474,55471.805,56047.021,71212.005,25351.023,-31519.292,-0.134,1.000,-0.096,1.160,-2.747,-0.061,66.667,99.000,1.000
44522.792,31692.502,23604.879,56882.554,57062.153,72620.603,26800.877,-31827.948,-0.131,1.001,-0.095,1.282,-2.808,0.092,66.667,100.000,1.000
45694.881,32719.467,25165.735,58424.439,57922.080,73851.641,28137.254,-31873.581,-0.132,1.004,-0.095,1.160,-2.930,0.122,66.667,101.000,1.000
46707.582,34327.232,25819.656,59561.077,58831.954,74748.309,28798.772,-31536.843,-0.132,1.004,-0.095,1.221,-2.991,0.275,66.667,102.000,1.000
47544.361,35889.549,26258.966,60210.217,59796.884,75461.666,29084.372,-31167.314,-0.131,1.004,-0.098,1.099,-3.143,0.397,66.667,103.000,1.000
48323.715,36808.678,27325.286,60817.605,60637.597,76230.722,29691.264,-31083.325,-0.132,1.005,-0.095,1.038,-3.174,0.610,66.667,104.000,1.000
49132.627,37295.514,28890.965,61728.151,61243.689,77066.183,30766.914,-31160.516,-0.130,1.006,-0.096,0.946,-3.296,0.549,66.667,105.000,1.000
49913.320,38015.575,30109.972,62743.343,61711.627,77759.609,31764.114,-31039.068,-0.130,1.006,-0.096,0.854,-3.296,0.671,66.667,106.000,1.000
50551.867,39176.799,30591.234,63432.088,62200.316,78178.073,32220.027,-30617.720,-0.127,1.003,-0.094,0.793,-3.326,0.854,66.667,107.000,1.000
51035.831,40308.316,30870.656,63719.071,62721.255,78432.688,32354.210,-30160.866,-0.124,1.004,-0.093,0.671,-3.326,0.977,66.667,108.000,1.000
51464.825,40946.063,31625.222,63952.063,63141.619,78713.457,32718.485,-29919.230,-0.123,1.003,-0.097,0.671,-3.418,1.007,66.667,109.000,1.000
51910.771,41234.098,32776.194,64408.795,63372.615,79037.573,33446.527,-29808.930,-0.122,1.002,-0.098,0.580,-3.387,1.068,66.667,110.000,1.000
52326.139,41669.354,33665.999,64943.720,63479.546,79246.273,34122.632,-29558.868,-0.119,1.002,-0.099,0.458,-3.357,1.221,66.667,111.000,1.000
52618.910,42419.553,33972.633,65222.925,63581.831,79230.597,34379.050,-29082.516,-0.117,1.002,-0.099,0.427,-3.296,1.221,66.667,112.000,1.000
52780.974,43148.570,34094.454,65180.615,63697.180,79069.604,34369.515,-28567.226,-0.119,1.002,-0.096,0.366,-3.296,1.190,66.667,113.000,1.000
52894.689,43513.448,34559.305,65078.823,63735.892,78912.389,34516.433,-28200.047,-0.119,1.003,-0.096,0.305,-3.296,1.251,66.667,114.000,1.000
53019.187,43607.626,35329.958,65135.279,63632.501,78783.754,34938.045,-27928.427,-0.120,1.005,-0.098,0.214,-3.204,1.190,66.667,115.000,1.000
53117.538,43786.491,35917.933,65250.394,63428.617,78570.672,35332.482,-27558.981,-0.120,1.006,-0.096,0.214,-3.174,1.251,66.667,116.000,1.000
53117.076,44180.959,36066.513,65175.552,63208.464,78186.340,35415.872,-27023.583,-0.122,1.005,-0.095,0.214,-3.235,1.190,66.667,117.000,1.000
53010.302,44564.388,36053.914,64852.905,62989.339,77679.776,35284.462,-26450.379,-0.123,1.004,-0.095,0.031,-3.235,1.099,66.667,118.000,1.000
52859.095,44692.144,36271.351,64467.339,62711.218,77158.445,35244.481,-25976.660,-0.123,1.006,-0.096,0.031,-3.387,1.068,66.667,119.000,1.000
52706.830,44612.698,36708.859,64180.272,62323.882,76646.726,35395.210,-25577.712,-0.123,1.003,-0.098,-0.061,-3.418,1.068,66.667,120.000,1.000
52524.592,44561.583,37021.093,63929.026,61848.816,76068.221,35531.257,-25124.300,-0.123,1.005,-0.093,-0.061,-3.387,0.977,66.667,121.000,1.000
52259.194,44639.226,37013.028,63540.250,61344.027,75359.030,35446.320,-24560.247,-0.123,1.005,-0.096,-0.275,-3.418,0.916,66.667,122.000,1.000
51908.515,44712.655,36868.454,62968.778,60830.943,74549.935,35196.339,-23959.108,-0.123,1.005,-0.093,-0.244,-3.510,0.946,66.667,123.000,1.000
51521.345,44623.536,36866.053,62339.116,60277.842,73718.283,34993.512,-23411.366,-0.125,1.007,-0.092,-0.427,-3.632,0.793,66.667,124.000,1.000
51130.041,44387.582,37016.754,61765.708,59648.813,72888.353,34918.912,-22912.421,-0.122,1.002,-0.091,-0.458,-3.754,0.732,66.667,125.000,1.000
50712.078,44141.496,37091.815,61213.156,58947.591,72011.142,34842.469,-22388.433,-0.121,1.004,-0.092,-0.519,-3.784,0.641,66.667,126.000,1.000
50227.510,43954.354,36945.534,60566.159,58206.399,71037.487,34617.700,-21800.711,-0.122,1.003,-0.090,-0.671,-3.876,0.610,66.667,127.000,1.000
49674.354,43761.704,36681.754,59787.187,57445.147,69979.514,34264.457,-21185.693,-0.123,1.003,-0.094,-0.641,-3.998,0.549,66.667,128.000,1.000
49087.650,43473.163,36484.214,58950.546,56654.132,68888.324,33916.444,-20596.909,-0.123,1.003,-0.094,-0.641,-3.967,0.519,66.667,129.000,1.000
48491.120,43083.767,36380.150,58133.362,55813.723,67789.671,33640.466,-20040.146,-0.121,1.002,-0.094,-0.610,-4.150,0.427,66.667,130.000,1.000
47870.825,42659.158,36239.243,57324.855,54920.521,66661.315,33371.464,-19478.213,-0.122,1.001,-0.096,-0.641,-4.211,0.336,66.667,131.000,1.000
47201.549,42247.763,35962.681,56460.298,53990.515,65471.466,33018.008,-18881.611,-0.123,1.000,-0.093,-0.610,-4.242,0.336,66.667,132.000,1.000
46483.539,41838.859,35595.180,55511.613,53041.427,64220.309,32576.382,-18257.167,-0.122,0.998,-0.094,-0.610,-4.395,0.305,66.667,133.000,1.000
45740.240,41393.357,35243.485,54513.603,52076.173,62936.513,32117.340,-17631.915,-0.121,0.998,-0.095,-0.549,-4.456,0.305,66.667,134.000,1.000
44986.112,40888.238,34941.669,53510.874,51082.934,61642.259,31690.857,-17023.038,-0.124,0.999,-0.094,-0.549,-4.456,0.244,66.667,135.000,1.000
44211.133,40330.870,34631.259,52507.529,50049.607,60331.571,31276.952,-16425.599,-0.123,0.998,-0.093,-0.580,-4.547,0.122,66.667,136.000,1.000
43399.162,39748.380,34248.190,51475.277,48978.114,58983.663,30824.265,-15821.510,-0.123,0.999,-0.094,-0.610,-4.700,0.183,66.667,137.000,1.000
42550.769,39166.399,33791.863,50393.160,47884.225,57589.169,30310.973,-15197.710,-0.123,0.999,-0.093,-0.610,-4.730,0.214,66.667,138.000,1.000
41680.770,38584.910,33310.181,49267.371,46781.675,56160.196,29760.167,-14560.314,-0.122,0.997,-0.091,-0.641,-4.791,0.153,66.667,139.000,1.000
40798.716,37972.540,32842.822,48119.818,45667.203,54717.147,29209.176,-13931.421,-0.120,0.999,-0.091,-0.427,-4.883,0.122,66.667,140.000,1.000
39900.698,37299.081,32388.147,46967.864,44525.408,53268.239,28673.503,-13326.041,-0.119,1.002,-0.092,-0.305,-4.883,0.122,66.667,141.000,1.000
38980.117,36578.454,31912.747,45812.857,43350.064,51804.228,28136.080,-12731.490,-0.117,1.003,-0.092,-0.397,-4.913,0.183,66.667,142.000,1.000
38038.799,35862.356,31385.643,44641.077,42155.855,50311.733,27566.606,-12118.273,-0.116,1.004,-0.091,-0.519,-5.005,0.183,66.667,143.000,1.000
37083.884,35178.219,30810.092,43437.093,40963.336,48791.076,26954.487,-11476.231,-0.118,1.006,-0.091,-0.397,-4.944,0.214,66.667,144.000,1.000
36118.329,34488.527,30224.812,42202.151,39774.193,47258.801,26324.310,-10831.194,-0.120,1.003,-0.091,-0.549,-4.913,0.305,66.667,145.000,1.000
35139.349,33734.984,29664.545,40957.438,38569.090,45729.764,25711.704,-10215.405,-0.120,1.007,-0.090,-0.580,-4.944,0.183,66.667,146.000,1.000
34144.593,32917.822,29116.067,39721.336,37332.829,44199.751,25119.790,-9626.440,-0.120,1.005,-0.088,-0.610,-5.005,0.153,66.667,147.000,1.000
33135.539,32101.558,28527.016,38484.413,36074.937,42649.854,24509.566,-9030.561,-0.119,1.002,-0.089,-0.671,-5.127,0.183,66.667,148.000,1.000
32114.649,31330.900,27869.400,37218.069,34817.901,41070.316,23845.177,-8409.666,-0.121,1.001,-0.091,-0.702,-5.127,0.183,66.667,149.000,1.000
31083.133,30568.054,27181.640,35912.730,33568.192,39475.186,23142.475,-7789.029,-0.124,1.001,-0.093,-0.671,-5.188,0.122,66.667,150.000,1.000
30043.220,29742.212,26526.479,34596.463,32309.483,37887.251,22454.371,-7205.063,-0.125,1.002,-0.088,-0.671,-5.310,0.122,66.667,151.000,1.000
28999.578,28849.097,25910.653,33303.860,31028.043,36312.111,21804.856,-6654.257,-0.126,1.005,-0.086,-0.732,-5.432,0.000,66.667,152.000,1.000
27955.555,27963.097,25273.456,32032.319,29735.783,34733.914,21157.244,-6094.042,-0.127,1.003,-0.088,-0.671,-5.554,-0.031,66.667,153.000,1.000
26909.357,27140.002,24567.143,30745.500,28458.029,33139.269,20463.027,-5498.282,-0.128,1.001,-0.090,-0.641,-5.920,0.061,66.667,154.000,1.000
25857.112,26341.263,23824.904,29423.173,27201.292,31537.985,19729.323,-4893.489,-0.127,1.000,-0.087,-0.610,-6.012,0.031,66.667,155.000,1.000
24799.386,25485.816,23120.602,28091.210,25945.055,29951.814,19012.722,-4324.737,-0.127,1.001,-0.088,-0.580,-6.165,-0.061,66.667,156.000,1.000
23741.133,24560.812,22469.382,26788.593,24669.528,28386.581,18344.055,-3795.970,-0.126,1.000,-0.085,-0.580,-6.317,-0.092,66.667,157.000,1.000
22684.452,23639.829,21804.378,25514.614,23382.419,26824.623,17685.218,-3265.789,-0.127,1.000,-0.088,-0.336,-6.622,-0.061,66.667,158.000,1.000
21625.086,22783.048,21065.862,24229.331,22108.861,25249.265,16979.325,-2704.822,-0.126,1.000,-0.089,-0.305,-6.836,-0.092,66.667,159.000,1.000
20558.891,21956.198,20283.934,22908.701,20858.518,23668.981,16228.290,-2136.441,-0.125,1.000,-0.087,-0.244,-6.927,-0.031,66.667,160.000,1.000
19489.600,21079.300,19540.385,21579.520,19614.509,22107.761,15491.907,-1605.228,-0.124,1.001,-0.089,-0.153,-6.927,-0.092,66.667,161.000,1.000
18426.006,20137.396,18859.297,20285.179,18358.323,20575.133,14808.144,-1116.757,-0.121,0.999,-0.088,-0.122,-6.927,-0.153,66.667,162.000,1.000
17371.506,19201.039,18175.123,19028.198,17095.978,19054.912,14142.695,-631.128,-0.123,1.001,-0.084,0.061,-7.111,-0.183,66.667,163.000,1.000
16320.723,18329.937,17422.735,17768.308,15850.272,17528.232,13436.885,-117.973,-0.121,1.002,-0.086,0.153,-7.172,-0.214,66.667,164.000,1.000
15268.567,17493.447,16626.958,16479.027,14630.950,16000.103,12688.651,403.133,-0.119,1.003,-0.086,0.122,-7.080,-0.244,66.667,165.000,1.000
14219.151,16615.659,15869.301,15185.144,13423.499,14493.222,11955.875,890.861,-0.117,1.002,-0.090,0.214,-7.141,-0.214,66.667,166.000,1.000
13181.715,15680.505,15177.881,13929.832,12210.813,13018.850,11277.928,1338.587,-0.116,1.004,-0.091,0.214,-7.111,-0.275,66.667,167.000,1.000
12159.154,14752.925,14491.382,12717.207,10997.824,11563.660,10623.436,1782.308,-0.115,1.006,-0.092,0.305,-7.172,-0.214,66.667,168.000,1.000
11145.293,13890.191,13745.135,11508.977,9805.922,10110.308,9934.997,2250.975,-0.114,1.006,-0.090,0.275,-7.050,-0.244,66.667,169.000,1.000
10134.650,13066.715,12959.899,10278.502,8645.448,8662.965,9208.218,2728.059,-0.113,1.005,-0.090,0.305,-6.989,-0.305,66.667,170.000,1.000
9130.973,12212.966,12212.552,9047.437,7503.720,7242.400,8497.208,3175.562,-0.114,1.005,-0.092,0.305,-6.958,-0.336,66.667,171.000,1.000
8142.693,11311.382,11531.385,7855.788,6363.800,5859.027,7840.891,3585.479,-0.112,1.005,-0.089,0.275,-6.714,-0.427,66.667,172.000,1.000
7171.827,10417.861,10859.817,6708.033,5227.516,4499.862,7211.656,3988.198,-0.109,1.004,-0.087,0.244,-6.622,-0.549,66.667,173.000,1.000
6211.778,9583.407,10135.390,5568.833,4111.821,3146.784,6554.578,4408.537,-0.108,1.005,-0.086,0.214,-6.500,-0.580,66.667,174.000,1.000
5257.008,8786.152,9373.718,4412.377,3025.049,1800.809,5861.389,4831.313,-0.108,1.005,-0.091,0.183,-6.287,-0.732,66.667,175.000,1.000
4311.095,7964.593,8644.417,3256.954,1956.269,479.490,5179.028,5222.657,-0.110,1.006,-0.090,0.092,-6.073,-0.824,66.667,176.000,1.000
3382.008,7102.180,7975.888,2138.895,891.343,-806.517,4544.483,5575.937,-0.112,1.004,-0.089,0.000,-6.012,-0.946,66.667,177.000,1.000
2471.376,6247.330,7319.921,1063.782,-167.150,-2066.305,3936.861,5919.657,-0.110,1.005,-0.086,0.031,-5.798,-1.038,66.667,178.000,1.000
1572.809,5446.059,6620.899,1.683,-1202.881,-3314.167,3310.008,6278.822,-0.111,1.003,-0.086,-0.031,-5.646,-1.129,66.667,179.000,1.000
681.651,4682.512,5891.845,-1069.297,-2206.357,-4548.510,2657.677,6643.664,-0.109,1.003,-0.087,-0.031,-5.402,-1.190,66.667,180.000,1.000
-197.497,3905.804,5194.895,-2132.313,-3185.126,-5753.472,2021.651,6986.188,-0.110,1.006,-0.087,-0.061,-5.219,-1.343,66.667,181.000,1.000
-1056.208,3100.965,4556.863,-3155.044,-4151.723,-6919.340,1434.235,7298.559,-0.109,1.006,-0.084,0.061,-5.035,-1.465,66.667,182.000,1.000
-1893.105,2306.325,3935.854,-4133.128,-5107.159,-8054.862,875.328,7600.722,-0.110,1.005,-0.086,-0.092,-4.761,-1.709,66.667,183.000,1.000
-2715.135,1558.377,3280.761,-5094.474,-6041.506,-9175.015,300.899,7910.005,-0.111,1.005,-0.083,-0.092,-4.517,-1.709,66.667,184.000,1.000
-3527.735,843.171,2599.244,-6060.709,-6948.646,-10281.276,-298.661,8216.634,-0.109,1.005,-0.086,-0.153,-4.364,-1.770,66.667,185.000,1.000
-4327.486,118.557,1943.638,-7019.356,-7834.261,-11361.200,-889.031,8497.619,-0.110,1.004,-0.087,-0.183,-4.120,-1.831,66.667,186.000,1.000
-5106.849,-627.446,1339.164,-7942.706,-8706.948,-12405.249,-1440.174,8747.935,-0.109,1.005,-0.088,-0.122,-3.906,-1.923,66.667,187.000,1.000
-5863.830,-1362.095,753.618,-8824.919,-9565.416,-13418.152,-1964.302,8986.691,-0.111,1.003,-0.086,-0.214,-3.754,-2.045,66.667,188.000,1.000
-6603.506,-2053.261,145.402,-9687.095,-10399.414,-14410.177,-2494.675,9231.704,-0.111,1.002,-0.087,-0.153,-3.510,-2.106,66.667,189.000,1.000
-7330.278,-2710.621,-480.012,-10546.503,-11202.909,-15381.984,-3038.620,9477.526,-0.112,1.003,-0.086,-0.183,-3.357,-2.136,66.667,190.000,1.000
-8041.963,-3369.102,-1080.733,-11393.668,-11981.523,-16324.534,-3569.306,9704.919,-0.115,1.002,-0.083,-0.061,-3.174,-2.167,66.667,191.000,1.000
-8733.211,-4041.085,-1636.477,-12206.754,-12744.610,-17231.691,-4063.905,9906.834,-0.115,0.999,-0.084,-0.061,-2.899,-2.197,66.667,192.000,1.000
-9402.669,-4702.352,-2173.251,-12980.916,-13493.008,-18108.262,-4533.594,10095.944,-0.117,0.999,-0.084,0.122,-2.716,-2.228,66.667,193.000,1.000
-10053.993,-5326.769,-2724.842,-13732.739,-14218.486,-18962.545,-5006.301,10285.993,-0.119,1.000,-0.086,0.092,-2.686,-2.228,66.667,194.000,1.000
-10689.735,-5919.511,-3287.067,-14476.032,-14914.216,-19794.102,-5488.562,10474.193,-0.123,1.001,-0.086,0.214,-2.533,-2.258,66.667,195.000,1.000
-11307.019,-6505.868,-3825.718,-15203.389,-15581.922,-20594.137,-5958.306,10647.395,-0.124,1.001,-0.087,0.275,-2.441,-2.228,66.667,196.000,1.000
-11901.277,-7095.551,-4323.537,-15897.638,-16227.703,-21356.655,-6395.641,10800.983,-0.126,1.003,-0.085,0.397,-2.411,-2.289,66.667,197.000,1.000
-12472.638,-7671.735,-4801.378,-16555.460,-16853.490,-22086.026,-6808.072,10944.426,-0.126,1.002,-0.086,0.397,-2.441,-2.228,66.667,198.000,1.000
-13025.891,-8216.023,-5287.887,-17190.749,-17455.455,-22790.797,-7217.748,11087.750,-0.129,1.001,-0.087,0.397,-2.350,-2.228,66.667,199.000,1.000
-13564.404,-8732.816,-5782.066,-17815.174,-18030.496,-23472.812,-7631.185,11228.407,-0.130,1.001,-0.086,0.519,-2.380,-2.075,66.667,200.000,1.000
-14086.643,-9241.776,-6258.295,-18423.748,-18581.445,-24126.954,-8032.900,11355.216,-0.131,1.000,-0.085,0.488,-2.350,-2.075,66.667,201.000,1.000
-14589.439,-9751.706,-6702.711,-19003.649,-19114.132,-24749.521,-8408.681,11462.422,-0.130,0.999,-0.085,0.641,-2.411,-2.136,66.667,202.000,1.000
-15072.634,-10251.252,-7130.063,-19551.960,-19630.460,-25343.797,-8764.579,11555.311,-0.131,1.000,-0.087,0.732,-2.472,-2.045,66.667,203.000,1.000
-15538.796,-10726.050,-7561.212,-20078.263,-20126.613,-25915.291,-9117.177,11641.729,-0.133,1.001,-0.089,0.732,-2.594,-1.984,66.667,204.000,1.000
-15988.929,-11176.881,-7994.804,-20590.460,-20598.104,-26463.866,-9470.836,11722.263,-0.135,1.003,-0.084,0.793,-2.655,-1.923,66.667,205.000,1.000
-16420.379,-11615.685,-8410.560,-21084.170,-21044.633,-26984.162,-9812.763,11791.595,-0.135,1.003,-0.088,0.854,-2.777,-1.923,66.667,206.000,1.000
-16829.861,-12047.963,-8796.537,-21549.178,-21469.056,-27472.200,-10130.400,11847.378,-0.135,1.001,-0.088,0.885,-2.838,-1.862,66.667,207.000,1.000
-17217.346,-12466.099,-9162.716,-21982.716,-21872.687,-27929.943,-10426.431,11894.016,-0.135,0.999,-0.089,0.916,-2.899,-1.709,66.667,208.000,1.000
-17585.852,-12860.693,-9525.454,-22392.021,-22253.668,-28361.799,-10713.089,11936.766,-0.134,0.995,-0.090,0.946,-3.021,-1.709,66.667,209.000,1.000
-17937.700,-13232.840,-9886.374,-22784.347,-22610.010,-28768.458,-10995.909,11974.882,-0.135,0.991,-0.087,0.977,-3.174,-1.556,66.667,210.000,1.000
-18272.139,-13591.451,-10232.904,-23158.510,-22942.501,-29147.156,-11268.569,12002.928,-0.134,0.991,-0.092,1.251,-3.204,-1.465,66.667,211.000,1.000
-18587.183,-13941.390,-10556.519,-23508.317,-23253.903,-29496.433,-11523.420,12017.625,-0.133,0.991,-0.093,1.495,-3.174,-1.404,66.667,212.000,1.000
-18882.775,-14278.630,-10863.038,-23831.653,-23545.943,-29819.087,-11761.790,12021.146,-0.130,0.995,-0.090,1.526,-3.143,-1.373,66.667,213.000,1.000
-19161.034,-14597.043,-11163.198,-24132.882,-23818.073,-30118.942,-11991.009,12017.632,-0.130,0.998,-0.092,1.648,-3.143,-1.251,66.667,214.000,1.000
-19423.751,-14896.356,-11458.558,-24416.690,-24069.171,-30396.180,-12214.139,12008.188,-0.130,0.997,-0.096,1.770,-3.143,-1.251,66.667,215.000,1.000
-19670.602,-15181.358,-11741.107,-24682.433,-24299.360,-30647.974,-12426.626,11990.443,-0.130,0.998,-0.097,1.831,-3.113,-1.190,66.667,216.000,1.000
-19900.011,-15455.024,-12004.550,-24925.845,-24509.686,-30871.976,-12622.976,11962.238,-0.129,0.999,-0.095,1.984,-3.082,-1.129,66.667,217.000,1.000
-20111.067,-15715.043,-12251.290,-25144.612,-24700.496,-31068.909,-12803.454,11924.407,-0.125,0.998,-0.098,1.984,-3.021,-1.129,66.667,218.000,1.000
-20304.079,-15957.148,-12487.452,-25340.494,-24870.859,-31241.122,-12972.683,11879.661,-0.125,0.996,-0.100,2.136,-2.930,-1.068,66.667,219.000,1.000
-20479.441,-16179.869,-12714.365,-25516.228,-25019.521,-31389.395,-13133.180,11829.808,-0.123,0.997,-0.098,2.106,-2.808,-0.977,66.667,220.000,1.000
-20636.686,-16385.177,-12927.588,-25671.990,-25145.997,-31512.778,-13282.257,11774.945,-0.124,0.999,-0.099,2.197,-2.625,-1.007,66.667,221.000,1.000
-20775.189,-16575.817,-13123.260,-25805.910,-25250.977,-31610.244,-13415.586,11714.545,-0.124,1.001,-0.101,2.228,-2.472,-1.038,66.667,222.000,1.000
-20895.393,-16753.028,-13302.883,-25917.299,-25336.049,-31682.700,-13532.513,11648.086,-0.123,1.004,-0.101,2.106,-2.319,-1.038,66.667,223.000,1.000
-20998.749,-16916.383,-13471.276,-26008.164,-25402.910,-31732.524,-13636.929,11574.760,-0.124,1.006,-0.101,2.075,-2.228,-1.099,66.667,224.000,1.000
-21086.368,-17064.763,-13631.203,-26081.323,-25452.239,-31761.264,-13733.216,11493.786,-0.123,1.007,-0.101,1.831,-2.136,-1.099,66.667,225.000,1.000
-21158.066,-17197.356,-13781.039,-26137.682,-25483.239,-31768.914,-13822.222,11405.292,-0.122,1.007,-0.100,1.617,-2.075,-1.282,66.667,226.000,1.000
-21212.994,-17314.423,-13917.249,-26175.876,-25494.734,-31754.326,-13901.484,11310.170,-0.123,1.005,-0.104,1.465,-1.923,-1.404,66.667,227.000,1.000
-21250.935,-17417.130,-14038.225,-26194.128,-25486.717,-31716.992,-13968.502,11209.212,-0.121,1.006,-0.102,1.190,-1.831,-1.556,66.667,228.000,1.000
-21272.759,-17506.381,-14145.654,-26192.157,-25460.788,-31657.835,-14023.256,11102.681,-0.121,1.007,-0.103,1.007,-1.770,-1.617,66.667,229.000,1.000
-21279.825,-17582.065,-14242.730,-26171.517,-25418.989,-31578.339,-14067.763,10990.612,-0.119,1.006,-0.102,0.854,-1.587,-1.648,66.667,230.000,1.000
-21273.069,-17643.891,-14331.149,-26134.164,-25362.156,-31479.736,-14103.376,10873.282,-0.120,1.006,-0.100,0.641,-1.404,-1.709,66.667,231.000,1.000
-21252.734,-17692.942,-14409.714,-26080.774,-25289.925,-31362.002,-14129.006,10750.956,-0.119,1.007,-0.103,0.458,-1.160,-1.770,66.667,232.000,1.000
-21218.829,-17731.413,-14476.000,-26010.494,-25202.165,-31224.698,-14142.419,10623.397,-0.120,1.006,-0.105,0.305,-1.068,-1.801,66.667,233.000,1.000
-21171.472,-17760.015,-14529.252,-25922.277,-25099.458,-31068.012,-14143.068,10490.400,-0.119,1.004,-0.101,0.153,-0.824,-1.862,66.667,234.000,1.000
-21110.795,-17776.429,-14571.325,-25816.366,-24981.989,-30892.583,-14133.057,10352.757,-0.121,1.003,-0.102,0.061,-0.671,-1.862,66.667,235.000,1.000
-21036.974,-17777.826,-14604.659,-25694.530,-24849.244,-30699.389,-14115.252,10211.500,-0.120,1.001,-0.102,-0.061,-0.610,-1.862,66.667,236.000,1.000
-20950.501,-17764.880,-14629.558,-25558.759,-24701.419,-30489.011,-14090.705,10065.948,-0.120,1.002,-0.100,-0.183,-0.397,-1.801,66.667,237.000,1.000
-20851.947,-17741.528,-14644.026,-25409.586,-24540.068,-30261.820,-14058.027,9914.003,-0.119,1.003,-0.102,-0.305,-0.214,-1.801,66.667,238.000,1.000
-20741.438,-17710.288,-14646.596,-25246.142,-24366.779,-30018.379,-14015.518,9754.939,-0.120,1.004,-0.102,-0.336,-0.031,-1.770,66.667,239.000,1.000
-20618.659,-17669.196,-14638.557,-25068.005,-24181.586,-29759.449,-13963.629,9590.891,-0.121,1.005,-0.103,-0.397,0.092,-1.770,66.667,240.000,1.000
-20483.295,-17614.385,-14622.260,-24876.219,-23982.998,-29485.891,-13904.403,9424.901,-0.123,1.005,-0.101,-0.519,0.244,-1.709,66.667,241.000,1.000
-20335.330,-17544.977,-14597.487,-24671.966,-23769.578,-29197.376,-13838.417,9258.075,-0.123,1.005,-0.098,-0.610,0.305,-1.617,66.667,242.000,1.000
-20175.045,-17463.897,-14561.106,-24454.646,-23541.213,-28892.631,-13763.268,9089.540,-0.125,1.003,-0.098,-0.671,0.427,-1.556,66.667,243.000,1.000
-20003.063,-17373.786,-14511.040,-24222.375,-23299.021,-28570.971,-13676.155,8918.664,-0.127,1.003,-0.099,-0.824,0.458,-1.465,66.667,244.000,1.000
-19820.509,-17273.730,-14449.593,-23974.802,-23044.465,-28233.372,-13577.788,8745.891,-0.126,1.003,-0.100,-0.793,0.610,-1.495,66.667,245.000,1.000
-19628.827,-17161.256,-14381.434,-23714.560,-22778.744,-27882.404,-13472.544,8571.133,-0.128,1.001,-0.097,-0.916,0.610,-1.404,66.667,246.000,1.000
-19429.099,-17036.738,-14308.458,-23445.122,-22502.897,-27519.877,-13364.138,8392.576,-0.131,1.004,-0.097,-0.946,0.641,-1.282,66.667,247.000,1.000
-19221.282,-16903.783,-14228.085,-23167.439,-22217.845,-27145.922,-13251.928,8208.247,-0.132,1.004,-0.098,-0.885,0.641,-1.312,66.667,248.000,1.000
-19004.192,-16764.854,-14137.201,-22879.627,-21923.949,-26760.068,-13132.628,8018.529,-0.134,1.006,-0.097,-1.038,0.732,-1.282,66.667,249.000,1.000
-18776.594,-16618.230,-14036.521,-22580.012,-21620.656,-26362.564,-13004.855,7826.412,-0.134,1.004,-0.095,-1.160,0.732,-1.312,66.667,250.000,1.000
-18538.476,-16460.697,-13929.712,-22269.509,-21307.156,-25954.913,-12870.323,7634.831,-0.133,1.002,-0.092,-1.282,0.549,-1.251,66.667,251.000,1.000
-18291.209,-16292.561,-13818.722,-21950.518,-20983.803,-25538.269,-12730.819,7443.745,-0.134,1.001,-0.094,-1.312,0.427,-1.251,66.667,252.000,1.000
-18036.472,-16118.066,-13701.771,-21624.070,-20652.480,-25112.959,-12585.706,7250.457,-0.134,0.999,-0.094,-1.312,0.305,-1.251,66.667,253.000,1.000
-17775.131,-15940.412,-13576.379,-21289.022,-20315.004,-24679.111,-12433.277,7053.077,-0.135,1.000,-0.093,-1.343,0.153,-1.160,66.667,254.000,1.000
-17507.020,-15757.777,-13442.807,-20943.990,-19971.182,-24236.796,-12273.468,6853.128,-0.136,0.999,-0.092,-1.343,0.214,-1.221,66.667,255.000,1.000
-17231.607,-15565.619,-13303.190,-20589.245,-19619.052,-23785.936,-12107.940,6653.975,-0.135,1.000,-0.093,-1.312,0.092,-1.129,66.667,256.000,1.000
-16948.761,-15362.290,-13157.950,-20226.289,-19257.387,-23325.571,-11937.769,6456.808,-0.136,1.000,-0.091,-1.312,0.061,-1.068,66.667,257.000,1.000
-16658.778,-15150.546,-13004.808,-19855.879,-18887.197,-22854.890,-11762.056,6259.563,-0.135,0.999,-0.088,-1.251,-0.092,-1.068,66.667,258.000,1.000
-16361.974,-14933.436,-12841.998,-19477.463,-18510.582,-22374.580,-11579.423,6060.050,-0.134,1.000,-0.092,-1.129,-0.031,-1.007,66.667,259.000,1.000
-16058.629,-14710.575,-12671.344,-19090.863,-18128.826,-21886.744,-11390.457,5858.701,-0.132,0.999,-0.093,-1.099,-0.183,-0.977,66.667,260.000,1.000
-15749.195,-14479.611,-12496.775,-18697.666,-17741.986,-21393.944,-11197.704,5657.456,-0.132,1.000,-0.093,-1.099,-0.275,-1.007,66.667,261.000,1.000
-15434.337,-14240.498,-12319.988,-18300.234,-17350.151,-20897.230,-11003.014,5456.769,-0.130,1.002,-0.093,-1.068,-0.214,-0.946,66.667,262.000,1.000
-15114.753,-13996.601,-12139.071,-17899.565,-16954.570,-20396.307,-10805.730,5254.803,-0.131,1.002,-0.094,-0.946,-0.336,-0.854,66.667,263.000,1.000
-14791.060,-13751.227,-11951.832,-17494.925,-16557.135,-19891.000,-10604.262,5049.690,-0.131,1.002,-0.090,-0.916,-0.366,-0.854,66.667,264.000,1.000
-14463.846,-13504.248,-11759.179,-17085.643,-16158.626,-19381.928,-10398.813,4841.921,-0.130,1.001,-0.090,-0.946,-0.397,-0.793,66.667,265.000,1.000
-14133.715,-13253.103,-11564.055,-16672.453,-15757.880,-18870.233,-10191.365,4633.971,-0.128,1.003,-0.091,-0.916,-0.366,-0.671,66.667,266.000,1.000
-13801.033,-12996.420,-11367.380,-16256.542,-15352.816,-18355.799,-9982.883,4427.992,-0.130,1.003,-0.092,-0.824,-0.214,-0.702,66.667,267.000,1.000
-13465.562,-12735.231,-11166.574,-15837.671,-14941.918,-17837.268,-9771.568,4224.641,-0.128,1.002,-0.089,-0.824,-0.275,-0.641,66.667,268.000,1.000
-13126.737,-12470.774,-10958.764,-15414.307,-14524.976,-17313.714,-9554.872,4023.756,-0.129,1.001,-0.089,-0.763,-0.153,-0.671,66.667,269.000,1.000
-12784.411,-12202.356,-10744.389,-14985.751,-14102.809,-16785.766,-9332.720,3825.333,-0.131,1.002,-0.091,-0.763,-0.275,-0.671,66.667,270.000,1.000
-12438.938,-11928.049,-10526.286,-14553.167,-13676.359,-16255.187,-9107.478,3629.649,-0.132,1.002,-0.088,-0.763,-0.275,-0.671,66.667,271.000,1.000
-12090.445,-11647.079,-10305.660,-14118.137,-13246.242,-15722.452,-8880.800,3436.730,-0.133,1.000,-0.089,-0.671,-0.214,-0.732,66.667,272.000,1.000
-11738.495,-11360.732,-10080.659,-13680.896,-12813.124,-15186.588,-8651.771,3246.072,-0.135,1.000,-0.092,-0.793,-0.214,-0.732,66.667,273.000,1.000
-11382.882,-11071.002,-9849.505,-13240.800,-12378.333,-14647.190,-8418.868,3056.840,-0.133,0.998,-0.089,-0.610,-0.244,-0.885,66.667,274.000,1.000
-11024.596,-10779.034,-9613.823,-12798.288,-11943.704,-14105.768,-8182.930,2868.217,-0.132,0.998,-0.087,-0.549,-0.336,-0.885,66.667,275.000,1.000
-10665.522,-10485.232,-9377.629,-12355.458,-11510.637,-13565.363,-7947.036,2679.540,-0.131,0.996,-0.090,-0.427,-0.305,-0.946,66.667,276.000,1.000
-10307.209,-10190.436,-9143.269,-11914.370,-11079.482,-13027.919,-7713.354,2490.356,-0.132,0.998,-0.092,-0.519,-0.397,-0.946,66.667,277.000,1.000
-9950.070,-9896.075,-8909.522,-11475.124,-10649.758,-12493.398,-7480.839,2300.821,-0.131,0.997,-0.090,-0.427,-0.427,-1.007,66.667,278.000,1.000
-9593.684,-9602.823,-8673.866,-11036.122,-10220.883,-11960.830,-7246.732,2111.928,-0.131,0.998,-0.094,-0.427,-0.427,-1.068,66.667,279.000,1.000
-9237.568,-9309.677,-8435.594,-10596.140,-9792.682,-11429.569,-7009.899,1924.971,-0.132,0.999,-0.093,-0.305,-0.427,-1.038,66.667,280.000,1.000
-8881.610,-9015.038,-8196.061,-10155.709,-9365.375,-10900.092,-6771.831,1740.701,-0.131,1.000,-0.093,-0.305,-0.427,-1.038,66.667,281.000,1.000
-8525.950,-8718.665,-7956.398,-9716.494,-8939.429,-10372.899,-6534.607,1558.828,-0.130,1.000,-0.090,-0.214,-0.458,-1.007,66.667,282.000,1.000
-8170.515,-8421.873,-7716.053,-9279.596,-8515.341,-9848.090,-6298.800,1378.424,-0.129,1.000,-0.091,-0.275,-0.427,-0.946,66.667,283.000,1.000
-7814.823,-8125.719,-7473.792,-8844.757,-8093.342,-9325.545,-6063.461,1199.078,-0.130,1.000,-0.092,-0.153,-0.275,-0.916,66.667,284.000,1.000
-7458.405,-7829.578,-7229.432,-8411.093,-7673.163,-8805.086,-5827.421,1021.695,-0.128,1.002,-0.093,-0.183,-0.214,-0.793,66.667,285.000,1.000
-7101.424,-7531.931,-6983.961,-7978.236,-7254.231,-8287.124,-5590.232,847.837,-0.126,1.004,-0.094,-0.214,-0.122,-0.854,66.667,286.000,1.000
-6744.863,-7232.329,-6738.137,-7546.621,-6836.287,-7772.023,-5352.074,678.308,-0.126,1.002,-0.094,-0.244,-0.092,-0.763,66.667,287.000,1.000
-6390.013,-6931.927,-6491.623,-7116.734,-6419.655,-7259.919,-5113.089,512.801,-0.127,1.002,-0.094,-0.336,0.031,-0.671,66.667,288.000,1.000
-6037.989,-6632.317,-6243.962,-6688.754,-6005.195,-6751.002,-4873.388,350.569,-0.128,1.003,-0.097,-0.336,0.153,-0.610,66.667,289.000,1.000
-5689.691,-6334.443,-5996.040,-6263.155,-5594.168,-6245.798,-4633.761,190.967,-0.127,1.003,-0.096,-0.397,0.275,-0.458,66.667,290.000,1.000
-5345.730,-6038.609,-5749.830,-5841.111,-5187.870,-5745.622,-4395.792,33.359,-0.127,1.005,-0.094,-0.458,0.244,-0.427,66.667,291.000,1.000
-5006.184,-5745.115,-5506.644,-5424.006,-4787.256,-5251.653,-4161.106,-123.274,-0.127,1.003,-0.096,-0.519,0.305,-0.427,66.667,292.000,1.000
-4670.480,-5454.335,-5266.122,-5012.468,-4392.559,-4764.497,-3930.404,-279.909,-0.126,1.005,-0.097,-0.549,0.275,-0.397,66.667,293.000,1.000
-4337.623,-5166.057,-5026.890,-4605.956,-4003.101,-4283.979,-3703.081,-436.328,-0.126,1.003,-0.097,-0.671,0.336,-0.305,66.667,294.000,1.000
-4006.633,-4879.140,-4787.866,-4203.408,-3617.690,-3809.212,-3477.927,-590.963,-0.127,1.003,-0.096,-0.641,0.366,-0.275,66.667,295.000,1.000
-3676.898,-4592.192,-4548.723,-3804.187,-3235.310,-3339.608,-3254.099,-742.035,-0.128,1.002,-0.096,-0.549,0.458,-0.305,66.667,296.000,1.000
-3348.360,-4304.758,-4309.416,-3408.391,-2855.662,-2874.774,-3031.326,-888.645,-0.128,0.999,-0.094,-0.641,0.397,-0.336,66.667,297.000,1.000
-3021.566,-4017.827,-4069.985,-3016.544,-2479.379,-2414.745,-2809.594,-1031.045,-0.128,1.000,-0.093,-0.610,0.519,-0.275,66.667,298.000,1.000
-2697.549,-3733.167,-3830.949,-2629.310,-2107.740,-1960.091,-2589.177,-1170.131,-0.129,1.000,-0.093,-0.671,0.427,-0.305,66.667,299.000,1.000
-2377.460,-3452.093,-3593.455,-2247.308,-1741.824,-1511.501,-2370.709,-1306.508,-0.130,1.000,-0.092,-0.702,0.397,-0.366,66.667,300.000,1.000
-2062.116,-3174.798,-3358.646,-1870.881,-1381.800,-1069.902,-2154.777,-1439.982,-0.130,0.999,-0.092,-0.702,0.305,-0.458,66.667,301.000,1.000
-1751.779,-2900.669,-3126.733,-1499.952,-1027.052,-635.673,-1941.374,-1569.918,-0.129,0.998,-0.091,-0.610,0.366,-0.336,66.667,302.000,1.000
-1446.060,-2628.837,-2896.703,-1133.912,-676.609,-208.384,-1729.668,-1695.614,-0.131,0.998,-0.091,-0.549,0.305,-0.427,66.667,303.000,1.000
-1144.144,-2358.615,-2667.141,-771.907,-329.690,212.981,-1518.530,-1816.438,-0.130,0.999,-0.091,-0.580,0.244,-0.397,66.667,304.000,1.000
-845.342,-2089.818,-2437.472,-413.496,13.727,629.332,-1307.543,-1932.090,-0.129,0.998,-0.095,-0.488,0.275,-0.427,66.667,305.000,1.000
-549.479,-1822.799,-2208.368,-59.084,352.849,1040.196,-1097.591,-2042.945,-0.129,1.001,-0.092,-0.580,0.275,-0.427,66.667,306.000,1.000
-257.073,-1558.416,-1981.223,290.127,686.434,1444.151,-890.494,-2150.139,-0.129,1.002,-0.090,-0.519,0.183,-0.336,66.667,307.000,1.000
30.916,-1297.743,-1757.313,632.837,1013.379,1839.649,-687.688,-2254.882,-0.129,1.003,-0.092,-0.580,0.153,-0.366,66.667,308.000,1.000
313.761,-1041.419,-1537.122,968.552,1333.249,2226.039,-489.176,-2357.584,-0.130,1.003,-0.090,-0.641,0.031,-0.336,66.667,309.000,1.000
591.239,-789.387,-1320.429,1297.576,1646.154,2603.805,-294.081,-2457.985,-0.129,1.005,-0.089,-0.610,0.031,-0.275,66.667,310.000,1.000
863.268,-541.337,-1106.977,1620.232,1952.252,2973.218,-101.888,-2555.789,-0.128,1.005,-0.088,-0.702,0.031,-0.153,66.667,311.000,1.000
1129.651,-297.199,-896.756,1936.381,2251.545,3334.249,87.292,-2650.736,-0.128,1.005,-0.092,-0.763,-0.061,-0.153,66.667,312.000,1.000
1390.248,-57.205,-689.833,2245.619,2543.988,3686.622,273.134,-2742.562,-0.130,1.005,-0.089,-0.854,-0.061,-0.122,66.667,313.000,1.000
1645.088,178.252,-486.255,2547.581,2829.430,4030.059,455.289,-2831.324,-0.129,1.006,-0.090,-0.854,-0.122,0.000,66.667,314.000,1.000
1894.310,408.862,-286.069,2842.130,3107.691,4364.760,633.561,-2917.281,-0.129,1.006,-0.090,-0.916,-0.275,0.061,66.667,315.000,1.000
2137.984,634.634,-89.387,3129.387,3378.790,4690.893,808.066,-3000.355,-0.131,1.005,-0.094,-0.946,-0.214,0.153,66.667,316.000,1.000
2375.785,855.734,103.502,3409.414,3642.824,5008.528,978.937,-3080.194,-0.130,1.007,-0.089,-0.946,-0.214,0.092,66.667,317.000,1.000
2607.038,1072.205,292.227,3682.041,3899.835,5317.325,1146.084,-3156.554,-0.127,1.006,-0.088,-1.038,-0.275,0.092,66.667,318.000,1.000
2831.239,1283.918,476.644,3947.029,4149.860,5616.849,1309.398,-3229.378,-0.125,1.004,-0.087,-1.038,-0.305,0.000,66.667,319.000,1.000
3048.429,1490.722,657.005,4204.276,4392.961,5907.165,1468.874,-3298.830,-0.125,1.004,-0.088,-1.038,-0.305,0.000,66.667,320.000,1.000
3259.200,1692.728,833.852,4453.997,4629.318,6188.440,1624.498,-3365.241,-0.124,1.003,-0.088,-1.129,-0.366,-0.031,66.667,321.000,1.000
3464.491,1890.489,1007.834,4696.741,4859.331,6461.217,1776.290,-3428.720,-0.124,1.003,-0.085,-0.977,-0.275,0.000,66.667,322.000,1.000
3665.245,2084.775,1179.381,4933.117,5083.406,6725.946,1924.393,-3489.010,-0.124,1.001,-0.091,-1.038,-0.275,-0.061,66.667,323.000,1.000
3861.936,2275.936,1348.431,5163.327,5301.466,6982.576,2068.855,-3545.971,-0.123,0.999,-0.092,-0.916,-0.153,-0.122,66.667,324.000,1.000
4054.294,2463.586,1514.525,5387.070,5512.981,7230.952,2209.626,-3599.685,-0.123,0.999,-0.089,-0.885,-0.122,-0.214,66.667,325.000,1.000
4241.517,2646.942,1677.097,5603.953,5717.518,7470.796,2346.896,-3649.973,-0.123,0.997,-0.090,-0.793,-0.061,-0.244,66.667,326.000,1.000
4422.718,2825.302,1835.704,5813.763,5914.795,7702.128,2480.937,-3696.527,-0.124,0.996,-0.093,-0.610,-0.061,-0.244,66.667,327.000,1.000
4597.398,2998.293,1990.112,6016.454,6104.436,7924.907,2611.617,-3739.550,-0.123,0.996,-0.090,-0.549,0.061,-0.214,66.667,328.000,1.000
4765.612,3165.865,2140.350,6212.001,6285.992,8138.971,2738.359,-3779.859,-0.124,0.995,-0.090,-0.488,0.000,-0.244,66.667,329.000,1.000
4927.779,3328.171,2286.642,6400.334,6459.287,8344.444,2860.669,-3818.259,-0.124,0.995,-0.088,-0.336,0.031,-0.397,66.667,330.000,1.000
5084.516,3485.647,2429.343,6581.570,6624.862,8541.484,2978.761,-3854.651,-0.121,0.996,-0.089,-0.214,0.122,-0.458,66.667,331.000,1.000
5236.497,3638.971,2568.827,6756.119,6783.988,8730.679,3093.561,-3887.760,-0.124,0.998,-0.087,-0.092,0.275,-0.549,66.667,332.000,1.000
5384.051,3788.583,2705.107,6924.292,6937.945,8912.425,3205.954,-3916.009,-0.125,0.997,-0.088,-0.092,0.275,-0.610,66.667,333.000,1.000
5526.861,3934.193,2837.690,7085.908,7087.123,9086.372,3315.979,-3938.871,-0.126,0.998,-0.087,0.000,0.275,-0.641,66.667,334.000,1.000
5664.178,4074.855,2965.922,7240.434,7230.758,9251.843,3422.734,-3957.391,-0.127,1.000,-0.092,0.061,0.183,-0.641,66.667,335.000,1.000
5795.223,4209.516,3089.301,7387.395,7367.378,9407.893,3524.992,-3973.457,-0.125,1.001,-0.088,-0.031,0.244,-0.702,66.667,336.000,1.000
5919.421,4337.609,3207.545,7526.574,7495.523,9554.040,3621.932,-3988.604,-0.124,1.002,-0.086,0.000,0.275,-0.732,66.667,337.000,1.000
6036.557,4459.429,3320.655,7658.057,7614.608,9690.304,3713.587,-4003.103,-0.125,1.001,-0.089,0.092,0.336,-0.854,66.667,338.000,1.000
6146.777,4575.813,3428.945,7782.084,7725.219,9817.142,3800.676,-4015.981,-0.125,1.004,-0.092,0.000,0.366,-0.793,66.667,339.000,1.000
6250.345,4687.279,3532.750,7898.694,7828.366,9935.230,3883.822,-4026.138,-0.124,1.006,-0.092,0.000,0.427,-0.732,66.667,340.000,1.000
6347.447,4793.573,3632.046,8007.547,7924.501,10044.433,3962.863,-4033.510,-0.123,1.007,-0.088,0.122,0.427,-0.763,66.667,341.000,1.000
6438.257,4894.128,3726.542,8108.167,8013.397,10144.230,4036.974,-4038.973,-0.122,1.008,-0.092,-0.092,0.458,-0.763,66.667,342.000,1.000
6523.160,4988.855,3816.156,8200.514,8094.873,10234.332,4105.571,-4043.248,-0.123,1.008,-0.093,-0.153,0.519,-0.641,66.667,343.000,1.000
6602.758,5078.312,3901.355,8285.284,8169.296,10315.189,4168.992,-4046.216,-0.123,1.006,-0.094,-0.153,0.580,-0.610,66.667,344.000,1.000
6677.621,5163.291,3983.047,8363.626,8237.427,10388.095,4228.369,-4047.093,-0.123,1.002,-0.092,-0.122,0.671,-0.519,66.667,345.000,1.000
6748.121,5244.580,4062.169,8436.675,8300.158,10454.258,4285.074,-4044.753,-0.123,1.000,-0.091,-0.214,0.732,-0.580,66.667,346.000,1.000
6814.411,5322.945,4139.347,8505.150,8358.422,10514.818,4340.189,-4037.925,-0.122,1.000,-0.089,-0.153,0.793,-0.610,66.667,347.000,1.000
6876.362,5398.852,4214.629,8569.070,8412.798,10570.379,4394.014,-4025.855,-0.121,0.995,-0.092,-0.244,0.793,-0.488,66.667,348.000,1.000
6933.386,5471.834,4287.311,8627.577,8462.660,10620.452,4445.624,-4009.413,-0.124,0.992,-0.093,0.000,0.854,-0.488,66.667,349.000,1.000
6984.673,5540.578,4356.293,8679.430,8506.414,10663.865,4493.446,-3990.696,-0.125,0.993,-0.091,0.122,0.854,-0.549,66.667,350.000,1.000
7029.941,5604.122,4420.975,8724.158,8543.273,10699.521,4536.875,-3970.755,-0.125,0.994,-0.093,0.244,0.854,-0.702,66.667,351.000,1.000
7069.625,5662.499,4481.513,8762.333,8573.918,10727.488,4576.661,-3948.796,-0.126,0.995,-0.094,0.244,0.854,-0.824,66.667,352.000,1.000
7104.194,5715.996,4538.023,8794.551,8599.058,10748.116,4613.383,-3924.188,-0.128,0.996,-0.098,0.214,0.946,-0.854,66.667,353.000,1.000
7133.619,5764.384,4590.064,8820.656,8618.274,10761.137,4646.338,-3898.056,-0.128,0.997,-0.095,0.244,0.885,-0.977,66.667,354.000,1.000
7157.563,5807.197,4637.091,8840.063,8630.619,10766.150,4674.359,-3872.200,-0.129,0.999,-0.097,0.275,0.824,-0.885,66.667,355.000,1.000
7175.759,5844.402,4678.985,8852.412,8635.728,10762.826,4697.044,-3847.323,-0.129,0.999,-0.095,0.336,0.702,-1.160,66.667,356.000,1.000
7188.147,5876.541,4716.091,8857.749,8634.043,10751.507,4714.881,-3822.695,-0.126,1.000,-0.096,0.214,0.641,-1.221,66.667,357.000,1.000
7194.976,5904.474,4749.060,8856.577,8626.578,10733.035,4728.927,-3796.548,-0.126,1.001,-0.099,0.214,0.671,-1.312,66.667,358.000,1.000
7196.902,5929.133,4778.858,8849.923,8614.718,10708.679,4740.702,-3766.546,-0.124,1.004,-0.094,0.183,0.641,-1.343,66.667,359.000,1.000
7194.899,5951.254,4806.616,8839.134,8599.801,10680.040,4751.779,-3730.824,-0.124,1.004,-0.095,0.122,0.610,-1.343,66.667,360.000,1.000
7189.910,5971.038,4833.047,8825.262,8582.348,10647.853,4762.846,-3689.341,-0.125,1.004,-0.095,0.000,0.610,-1.434,66.667,361.000,1.000
7182.342,5987.956,4857.905,8808.389,8561.587,10611.795,4773.020,-3644.133,-0.125,1.007,-0.095,0.031,0.580,-1.526,66.667,362.000,1.000
7171.923,6001.086,4880.104,8787.637,8536.100,10570.689,4780.472,-3597.834,-0.125,1.009,-0.095,-0.061,0.580,-1.495,66.667,363.000,1.000
7158.027,6009.688,4898.501,8761.893,8504.948,10523.356,4783.822,-3551.917,-0.126,1.009,-0.099,-0.366,0.519,-1.556,66.667,364.000,1.000
7140.004,6013.445,4912.533,8730.442,8467.975,10469.396,4782.716,-3506.465,-0.123,1.008,-0.096,-0.458,0.519,-1.587,66.667,365.000,1.000
7117.371,6012.381,4922.217,8693.103,8425.290,10408.655,4777.377,-3461.100,-0.123,1.007,-0.097,-0.549,0.519,-1.648,66.667,366.000,1.000
7089.984,6006.772,4927.892,8650.099,8377.019,10341.435,4768.141,-3415.515,-0.125,1.006,-0.094,-0.549,0.580,-1.648,66.667,367.000,1.000
7057.982,5997.005,4929.864,8601.818,8323.524,10268.199,4755.378,-3369.336,-0.126,1.007,-0.096,-0.732,0.549,-1.648,66.667,368.000,1.000
7021.492,5983.300,4928.224,8548.570,8265.419,10189.276,4739.490,-3322.015,-0.127,1.005,-0.094,-0.885,0.641,-1.556,66.667,369.000,1.000
6980.599,5965.733,4923.056,8490.645,8203.397,10105.134,4721.005,-3272.904,-0.128,1.005,-0.091,-0.885,0.549,-1.556,66.667,370.000,1.000
6935.546,5944.444,4914.593,8428.384,8137.956,10016.012,4700.478,-3221.580,-0.130,1.002,-0.093,-0.946,0.519,-1.495,66.667,371.000,1.000
6886.725,5919.643,4903.078,8361.969,8069.057,9922.191,4678.042,-3168.374,-0.131,1.004,-0.093,-0.885,0.488,-1.526,66.667,372.000,1.000
6834.663,5891.671,4888.784,8291.481,7996.362,9823.886,4653.356,-3114.202,-0.131,1.001,-0.093,-0.946,0.336,-1.526,66.667,373.000,1.000
6780.043,5861.161,4872.284,8217.246,7919.960,9721.435,4626.194,-3059.536,-0.133,1.002,-0.092,-0.977,0.305,-1.526,66.667,374.000,1.000
6723.512,5828.859,4854.403,8139.880,7840.594,9615.579,4596.851,-3003.796,-0.132,1.002,-0.093,-1.038,0.214,-1.465,66.667,375.000,1.000
6665.231,5795.022,4835.540,8059.822,7758.781,9506.613,4565.675,-2946.294,-0.133,1.001,-0.089,-1.068,0.122,-1.404,66.667,376.000,1.000
6604.547,5758.900,4815.070,7976.789,7673.744,9394.239,4532.255,-2887.716,-0.133,1.001,-0.090,-1.068,0.000,-1.343,66.667,377.000,1.000
6540.329,5719.165,4791.613,7889.954,7583.897,9277.535,4495.591,-2829.843,-0.134,1.003,-0.089,-1.038,-0.031,-1.312,66.667,378.000,1.000
6471.781,5674.935,4764.097,7798.721,7488.461,9155.722,4455.186,-2773.698,-0.134,1.002,-0.090,-1.160,-0.214,-1.160,66.667,379.000,1.000
6399.073,5626.446,4732.587,7703.315,7388.355,9029.181,4411.693,-2718.469,-0.135,1.003,-0.089,-1.160,-0.397,-1.099,66.667,380.000,1.000
6323.362,5574.923,4698.224,7604.771,7285.655,8899.025,4366.578,-2662.104,-0.133,1.004,-0.087,-1.160,-0.488,-1.099,66.667,381.000,1.000
6246.258,5521.867,4662.521,7504.360,7182.297,8766.757,4321.206,-2602.762,-0.132,1.005,-0.088,-1.160,-0.641,-1.068,66.667,382.000,1.000
6169.137,5468.317,4626.527,7402.928,7079.051,8633.253,4276.054,-2539.939,-0.133,1.005,-0.088,-1.190,-0.671,-0.977,66.667,383.000,1.000
6092.603,5414.558,4590.433,7300.601,6975.458,8498.421,4230.694,-2474.434,-0.134,1.005,-0.088,-1.221,-0.824,-0.946,66.667,384.000,1.000
6016.317,5360.259,4553.751,7196.971,6870.547,8361.911,4184.426,-2407.503,-0.132,1.004,-0.088,-1.282,-0.885,-0.916,66.667,385.000,1.000
5939.117,5304.538,4515.479,7091.297,6763.203,8223.004,4136.541,-2340.529,-0.132,1.006,-0.088,-1.343,-0.977,-0.793,66.667,386.000,1.000
5859.367,5245.995,4474.235,6982.496,6652.079,8080.934,4086.060,-2275.168,-0.131,1.005,-0.084,-1.404,-1.099,-0.732,66.667,387.000,1.000
5775.562,5183.247,4428.737,6869.470,6536.108,7934.911,4031.954,-2212.783,-0.130,1.002,-0.085,-1.343,-1.190,-0.671,66.667,388.000,1.000
5686.844,5115.587,4378.430,6751.631,6415.183,7784.422,3973.724,-2153.735,-0.129,1.003,-0.087,-1.312,-1.129,-0.671,66.667,389.000,1.000
5593.156,5043.268,4323.720,6629.225,6290.241,7629.691,3911.693,-2097.309,-0.129,1.000,-0.085,-1.221,-1.221,-0.580,66.667,390.000,1.000
5495.160,4967.448,4265.755,6503.364,6163.031,7471.386,3847.116,-2041.739,-0.127,1.000,-0.085,-1.160,-1.251,-0.641,66.667,391.000,1.000
5393.878,4889.717,4205.939,6375.554,6035.561,7310.929,3781.841,-1984.494,-0.130,0.997,-0.083,-1.221,-1.251,-0.641,66.667,392.000,1.000
5290.320,4811.433,4145.398,6247.016,5909.213,7149.886,3717.381,-1923.441,-0.128,0.998,-0.085,-1.007,-1.221,-0.610,66.667,393.000,1.000
5185.276,4733.224,4084.673,6118.246,5784.079,6989.183,3654.121,-1858.218,-0.128,0.997,-0.086,-0.885,-1.190,-0.641,66.667,394.000,1.000
5079.076,4654.804,4023.638,5988.930,5659.058,6828.830,3591.187,-1790.492,-0.126,0.997,-0.087,-0.763,-1.221,-0.732,66.667,395.000,1.000
4971.415,4575.230,3961.638,5858.218,5532.683,6667.637,3527.025,-1722.801,-0.126,0.997,-0.086,-0.641,-1.221,-0.641,66.667,396.000,1.000
4861.761,4493.644,3898.052,5725.422,5404.099,6504.517,3460.563,-1656.801,-0.127,0.997,-0.084,-0.549,-1.129,-0.732,66.667,397.000,1.000
4750.132,4410.056,3832.900,5590.700,5273.578,6339.297,3392.080,-1592.365,-0.127,0.997,-0.089,-0.397,-1.068,-0.702,66.667,398.000,1.000
4637.219,4325.237,3766.730,5454.822,5141.944,6172.618,3322.604,-1528.508,-0.124,0.997,-0.087,-0.336,-1.068,-0.702,66.667,399.000,1.000
4523.728,4239.889,3699.931,5318.297,5009.623,6005.387,3252.648,-1464.889,-0.123,0.997,-0.087,-0.153,-1.038,-0.732,66.667,400.000,1.000
4409.924,4154.156,3632.402,5181.101,4876.527,5837.813,3182.003,-1401.945,-0.124,0.998,-0.089,-0.031,-0.946,-0.793,66.667,401.000,1.000
4295.761,4067.804,3563.917,5043.128,4742.652,5669.961,3110.485,-1339.914,-0.125,1.000,-0.089,0.092,-0.824,-0.824,66.667,402.000,1.000
4181.214,3980.569,3494.470,4904.613,4608.467,5501.957,3038.442,-1278.215,-0.125,1.002,-0.086,0.244,-0.854,-0.916,66.667,403.000,1.000
4066.294,3892.171,3424.154,4765.901,4474.462,5333.861,2966.434,-1215.958,-0.126,1.003,-0.091,0.336,-0.763,-0.916,66.667,404.000,1.000
3950.925,3802.270,3352.887,4627.019,4340.577,5165.725,2894.669,-1152.777,-0.125,1.003,-0.088,0.336,-0.671,-0.916,66.667,405.000,1.000
3835.018,3710.695,3280.440,4487.706,4206.410,4997.308,2822.923,-1088.951,-0.125,1.002,-0.089,0.366,-0.549,-0.793,66.667,406.000,1.000
3718.582,3617.562,3206.639,4347.679,4071.712,4828.581,2750.809,-1025.073,-0.125,1.002,-0.088,0.366,-0.427,-0.916,66.667,407.000,1.000
3601.724,3523.153,3131.449,4206.860,3936.463,4659.453,2677.977,-961.916,-0.127,0.999,-0.090,0.397,-0.427,-0.946,66.667,408.000,1.000
3484.728,3427.830,3055.046,4065.471,3800.640,4489.664,2604.161,-900.421,-0.126,0.996,-0.091,0.488,-0.305,-0.977,66.667,409.000,1.000
3368.178,3332.106,2977.901,3924.029,3664.200,4319.371,2529.299,-841.249,-0.126,0.996,-0.094,0.580,-0.183,-0.885,66.667,410.000,1.000
3252.790,3236.580,2900.608,3783.143,3527.313,4148.929,2453.654,-784.215,-0.126,0.998,-0.093,0.671,-0.122,-0.854,66.667,411.000,1.000
3138.820,3141.574,2823.515,3643.130,3390.361,3978.894,2377.589,-728.459,-0.126,1.000,-0.090,0.763,0.031,-0.732,66.667,412.000,1.000
3025.735,3046.973,2746.517,3503.868,3253.799,3809.457,2301.250,-673.133,-0.128,1.002,-0.090,0.732,0.061,-0.671,66.667,413.000,1.000
2912.599,2952.436,2669.245,3365.003,3117.985,3640.485,2224.501,-617.934,-0.130,1.002,-0.095,0.763,0.183,-0.641,66.667,414.000,1.000
2798.760,2857.659,2591.376,3226.235,2983.003,3472.200,2147.102,-563.144,-0.130,1.001,-0.094,0.732,0.244,-0.641,66.667,415.000,1.000
2684.265,2762.528,2512.842,3087.577,2848.702,3304.896,2069.054,-509.173,-0.131,1.001,-0.095,0.854,0.214,-0.610,66.667,416.000,1.000
2569.716,2667.108,2433.871,2949.349,2714.901,3139.053,1990.874,-456.010,-0.130,1.000,-0.092,0.824,0.214,-0.549,66.667,417.000,1.000
2455.934,2571.669,2354.910,2812.072,2581.716,2974.993,1913.629,-403.033,-0.130,1.000,-0.092,0.702,0.183,-0.519,66.667,418.000,1.000
2343.621,2476.588,2276.421,2676.202,2449.510,2812.733,1838.362,-349.572,-0.131,0.999,-0.094,0.702,0.305,-0.427,66.667,419.000,1.000
2232.972,2382.045,2198.538,2541.745,2318.509,2652.153,1765.198,-295.685,-0.130,0.999,-0.094,0.702,0.336,-0.427,66.667,420.000,1.000
2123.625,2287.990,2121.015,2408.288,2188.818,2492.877,1693.277,-242.063,-0.133,1.001,-0.094,0.854,0.336,-0.397,66.667,421.000,1.000
2014.955,2194.329,2043.535,2275.369,2060.617,2334.989,1621.501,-189.372,-0.131,1.002,-0.092,0.824,0.305,-0.488,66.667,422.000,1.000
1906.289,2100.891,1965.823,2142.704,1933.952,2178.572,1549.172,-137.990,-0.133,1.004,-0.094,0.702,0.427,-0.427,66.667,423.000,1.000
1797.150,2007.378,1887.658,2010.268,1808.514,2023.083,1476.252,-87.960,-0.132,1.004,-0.092,0.671,0.427,-0.366,66.667,424.000,1.000
1687.675,1913.669,1809.163,1878.468,1683.945,1867.932,1403.466,-38.800,-0.131,1.005,-0.091,0.641,0.397,-0.458,66.667,425.000,1.000
1578.718,1820.083,1730.966,1748.085,1560.214,1713.233,1331.978,10.345,-0.130,1.005,-0.094,0.549,0.366,-0.488,66.667,426.000,1.000
1471.315,1727.239,1653.925,1619.772,1437.470,1560.723,1262.458,59.851,-0.129,1.005,-0.096,0.427,0.458,-0.488,66.667,427.000,1.000
1366.100,1635.774,1578.646,1493.666,1315.806,1412.419,1194.374,109.012,-0.129,1.004,-0.096,0.305,0.488,-0.519,66.667,428.000,1.000
1263.085,1546.039,1505.172,1369.431,1195.206,1268.631,1126.276,156.435,-0.129,1.004,-0.100,0.275,0.427,-0.549,66.667,429.000,1.000
1161.782,1457.854,1432.931,1246.557,1075.633,1127.753,1056.825,201.023,-0.126,1.004,-0.098,0.214,0.427,-0.580,66.667,430.000,1.000
1061.609,1370.671,1361.071,1124.773,957.229,987.475,985.718,242.723,-0.126,1.005,-0.095,0.122,0.458,-0.519,66.667,431.000,1.000
962.289,1283.969,1289.014,1004.273,840.445,847.118,913.898,282.575,-0.127,1.005,-0.096,-0.031,0.549,-0.519,66.667,432.000,1.000
863.921,1197.547,1216.699,885.566,726.009,707.701,843.052,322.165,-0.126,1.005,-0.096,-0.092,0.488,-0.610,66.667,433.000,1.000
766.781,1111.462,1144.387,769.043,614.584,570.416,774.649,362.734,-0.127,1.003,-0.100,-0.031,0.458,-0.549,66.667,434.000,1.000
671.094,1025.838,1072.362,654.706,506.299,435.717,709.145,404.497,-0.125,1.003,-0.097,-0.061,0.641,-0.580,66.667,435.000,1.000
576.937,940.769,1000.737,542.216,400.541,303.080,645.875,446.546,-0.124,1.004,-0.099,-0.153,0.641,-0.580,66.667,436.000,1.000
484.183,856.292,929.404,430.998,296.088,172.132,583.443,487.208,-0.125,1.004,-0.099,-0.275,0.793,-0.580,66.667,437.000,1.000
392.609,772.500,858.142,320.513,191.794,42.800,520.385,524.837,-0.126,1.001,-0.098,-0.244,0.916,-0.549,66.667,438.000,1.000
302.105,689.659,786.937,210.637,87.305,-84.884,455.880,558.735,-0.123,1.001,-0.101,-0.275,1.007,-0.549,66.667,439.000,1.000
212.776,608.127,716.143,101.800,-16.924,-210.568,390.160,589.413,-0.125,1.001,-0.097,-0.397,0.977,-0.549,66.667,440.000,1.000
124.906,528.124,646.301,-5.228,-120.093,-333.955,324.327,618.074,-0.127,1.000,-0.098,-0.427,0.977,-0.610,66.667,441.000,1.000
38.854,449.582,577.832,-109.737,-221.430,-454.546,259.679,645.910,-0.128,1.001,-0.096,-0.458,1.007,-0.519,66.667,442.000,1.000
-45.121,372.145,510.770,-211.353,-320.424,-572.112,197.046,673.713,-0.128,1.001,-0.097,-0.488,1.068,-0.549,66.667,443.000,1.000
-126.991,295.401,444.820,-310.118,-416.953,-686.897,136.542,701.744,-0.130,0.998,-0.096,-0.488,0.977,-0.610,66.667,444.000,1.000
-206.881,219.293,379.745,-406.372,-511.148,-799.119,77.719,729.738,-0.133,0.998,-0.094,-0.610,0.885,-0.549,66.667,445.000,1.000
-284.953,144.244,315.595,-500.545,-603.059,-909.077,19.921,757.197,-0.133,1.000,-0.094,-0.580,0.824,-0.671,66.667,446.000,1.000
-361.393,70.937,252.698,-592.953,-692.335,-1016.506,-37.209,784.002,-0.133,1.000,-0.095,-0.549,0.824,-0.732,66.667,447.000,1.000
-436.239,0.177,191.640,-683.443,-778.009,-1120.467,-93.201,810.898,-0.134,1.000,-0.095,-0.641,0.763,-0.702,66.667,448.000,1.000
-509.296,-67.361,133.060,-771.366,-859.099,-1219.749,-146.888,838.964,-0.135,1.000,-0.096,-0.732,0.702,-0.702,66.667,449.000,1.000
-580.453,-131.828,76.915,-856.295,-936.012,-1313.763,-197.516,868.183,-0.135,1.002,-0.094,-0.824,0.610,-0.854,66.667,450.000,1.000
-649.888,-194.485,22.030,-938.637,-1010.919,-1403.883,-245.674,896.846,-0.135,1.004,-0.093,-0.854,0.519,-0.824,66.667,451.000,1.000
-717.724,-256.923,-33.063,-1019.278,-1086.186,-1492.436,-292.914,922.771,-0.133,1.003,-0.094,-0.916,0.458,-0.885,66.667,452.000,1.000
-783.778,-319.968,-88.974,-1098.785,-1162.577,-1581.189,-340.539,944.946,-0.130,1.005,-0.092,-0.946,0.427,-0.824,66.667,453.000,1.000
-847.858,-383.352,-145.195,-1177.146,-1239.029,-1670.274,-388.825,964.019,-0.130,1.005,-0.094,-1.007,0.336,-0.854,66.667,454.000,1.000
-910.036,-446.000,-200.538,-1253.920,-1313.413,-1757.962,-436.983,981.809,-0.130,1.006,-0.096,-1.099,0.275,-0.793,66.667,455.000,1.000
-970.530,-506.584,-253.784,-1328.442,-1383.557,-1842.247,-483.728,1000.290,-0.128,1.004,-0.091,-1.160,0.427,-0.732,66.667,456.000,1.000
-1029.548,-564.266,-304.378,-1400.228,-1448.497,-1921.949,-528.177,1020.359,-0.126,1.002,-0.091,-1.221,0.458,-0.549,66.667,457.000,1.000
-1087.188,-619.057,-352.696,-1469.228,-1508.926,-1997.195,-570.246,1041.519,-0.125,1.004,-0.092,-1.343,0.549,-0.610,66.667,458.000,1.000
-1143.402,-671.612,-399.674,-1535.739,-1566.365,-2068.713,-610.328,1062.682,-0.126,1.004,-0.090,-1.343,0.641,-0.519,66.667,459.000,1.000
-1198.158,-722.762,-446.216,-1600.159,-1622.108,-2136.933,-648.903,1082.893,-0.124,1.006,-0.092,-1.251,0.671,-0.519,66.667,460.000,1.000
-1251.556,-773.092,-492.782,-1662.759,-1676.886,-2202.484,-686.421,1101.341,-0.125,1.003,-0.091,-1.312,0.854,-0.458,66.667,461.000,1.000
-1303.787,-822.877,-539.336,-1723.678,-1731.185,-2266.152,-723.432,1117.093,-0.126,1.002,-0.092,-1.282,0.885,-0.458,66.667,462.000,1.000
-1354.998,-872.328,-585.666,-1783.022,-1785.465,-2328.929,-760.658,1129.168,-0.126,1.000,-0.093,-1.373,1.038,-0.458,66.667,463.000,1.000
-1405.107,-921.630,-631.509,-1840.781,-1839.853,-2391.432,-798.736,1137.134,-0.125,0.999,-0.094,-1.404,1.099,-0.458,66.667,464.000,1.000
-1453.698,-970.691,-676.390,-1896.623,-1893.650,-2453.058,-837.637,1141.835,-0.125,1.000,-0.094,-1.312,1.221,-0.519,66.667,465.000,1.000
-1500.121,-1019.003,-719.585,-1949.846,-1945.397,-2512.602,-876.278,1145.345,-0.127,1.000,-0.090,-1.129,1.343,-0.488,66.667,466.000,1.000
-1543.754,-1065.805,-760.336,-1999.696,-1993.702,-2568.682,-912.950,1149.853,-0.129,1.000,-0.090,-1.129,1.465,-0.488,66.667,467.000,1.000
-1584.319,-1110.408,-798.327,-2045.849,-2038.137,-2620.568,-946.364,1156.312,-0.129,1.000,-0.092,-1.007,1.526,-0.488,66.667,468.000,1.000
-1622.187,-1152.579,-834.072,-2088.778,-2079.425,-2668.437,-976.550,1163.931,-0.128,1.001,-0.094,-0.916,1.404,-0.580,66.667,469.000,1.000
-1658.306,-1192.598,-868.711,-2129.563,-2118.583,-2712.735,-1004.720,1171.044,-0.130,1.000,-0.092,-0.885,1.434,-0.641,66.667,470.000,1.000
-1693.573,-1230.830,-903.242,-2169.139,-2155.899,-2754.149,-1032.174,1176.483,-0.131,0.999,-0.094,-0.793,1.495,-0.641,66.667,471.000,1.000
-1728.376,-1267.421,-937.929,-2207.769,-2191.015,-2793.205,-1059.467,1180.055,-0.132,0.999,-0.090,-0.732,1.495,-0.671,66.667,472.000,1.000
-1762.545,-1302.317,-972.296,-2245.067,-2223.599,-2830.349,-1086.321,1182.259,-0.133,0.999,-0.088,-0.610,1.465,-0.641,66.667,473.000,1.000
-1795.509,-1335.511,-1005.500,-2280.388,-2253.731,-2865.760,-1112.030,1183.869,-0.133,0.998,-0.089,-0.641,1.465,-0.641,66.667,474.000,1.000
-1826.489,-1367.240,-1036.770,-2313.198,-2281.900,-2899.046,-1135.996,1185.463,-0.132,1.000,-0.089,-0.641,1.373,-0.732,66.667,475.000,1.000
-1854.647,-1397.847,-1065.662,-2343.140,-2308.716,-2929.997,-1158.029,1187.098,-0.133,1.000,-0.088,-0.519,1.343,-0.580,66.667,476.000,1.000
-1879.484,-1427.643,-1092.218,-2370.186,-2334.707,-2958.702,-1178.480,1188.171,-0.133,1.000,-0.089,-0.427,1.282,-0.641,66.667,477.000,1.000
-1901.281,-1456.892,-1117.086,-2394.768,-2360.170,-2985.662,-1197.982,1187.751,-0.132,1.001,-0.090,-0.366,1.251,-0.580,66.667,478.000,1.000
-1920.928,-1485.577,-1141.102,-2417.466,-2384.900,-3011.123,-1216.797,1185.385,-0.133,1.001,-0.089,-0.397,1.190,-0.519,66.667,479.000,1.000
-1939.326,-1513.156,-1164.701,-2438.618,-2408.063,-3034.356,-1234.701,1181.417,-0.133,1.001,-0.087,-0.458,1.068,-0.427,66.667,480.000,1.000
-1957.050,-1538.803,-1187.871,-2458.418,-2428.611,-3054.655,-1251.737,1176.388,-0.133,1.000,-0.089,-0.366,1.038,-0.427,66.667,481.000,1.000
-1974.376,-1562.002,-1210.478,-2477.187,-2445.969,-3071.772,-1268.598,1170.467,-0.134,0.999,-0.088,-0.397,0.977,-0.427,66.667,482.000,1.000
-1991.268,-1582.827,-1232.439,-2495.181,-2460.235,-3086.068,-1285.834,1163.734,-0.133,1.001,-0.087,-0.275,1.068,-0.336,66.667,483.000,1.000
-2007.327,-1601.679,-1253.601,-2512.233,-2471.763,-3098.011,-1302.939,1156.753,-0.132,1.001,-0.088,-0.153,0.977,-0.366,66.667,484.000,1.000
-2021.963,-1618.900,-1273.656,-2527.735,-2480.673,-3107.503,-1318.476,1150.530,-0.134,1.003,-0.088,-0.153,0.793,-0.244,66.667,485.000,1.000
-2034.816,-1634.772,-1292.355,-2541.048,-2487.032,-3114.519,-1331.173,1145.673,-0.134,1.003,-0.088,-0.153,0.885,-0.214,66.667,486.000,1.000
-2046.067,-1649.797,-1309.803,-2551.992,-2491.550,-3119.281,-1341.094,1141.416,-0.130,1.002,-0.090,-0.122,0.885,-0.183,66.667,487.000,1.000
-2056.143,-1664.489,-1326.317,-2560.763,-2495.399,-3122.328,-1349.503,1135.980,-0.132,1.001,-0.089,-0.031,0.916,-0.183,66.667,488.000,1.000
-2065.155,-1678.856,-1341.932,-2567.428,-2499.224,-3123.984,-1357.494,1128.138,-0.130,1.002,-0.088,-0.122,0.793,-0.122,66.667,489.000,1.000
-2072.773,-1692.316,-1356.241,-2571.741,-2502.672,-3123.812,-1365.009,1118.164,-0.131,1.003,-0.087,-0.061,0.793,-0.031,66.667,490.000,1.000
-2078.488,-1704.097,-1368.723,-2573.373,-2504.740,-3121.348,-1371.136,1107.393,-0.132,1.001,-0.090,-0.061,0.732,-0.061,66.667,491.000,1.000
-2081.833,-1713.677,-1379.061,-2572.190,-2504.430,-3116.218,-1375.127,1097.159,-0.132,1.002,-0.088,-0.092,0.763,-0.153,66.667,492.000,1.000
-2082.398,-1720.931,-1387.222,-2568.281,-2501.272,-3108.472,-1377.076,1087.939,-0.131,1.002,-0.089,0.000,0.580,-0.031,66.667,493.000,1.000
-2079.969,-1726.140,-1393.427,-2561.955,-2495.659,-3098.617,-1377.969,1078.983,-0.131,1.002,-0.091,0.000,0.519,-0.031,66.667,494.000,1.000
-2074.899,-1729.936,-1398.190,-2553.837,-2488.698,-3087.180,-1379.173,1068.749,-0.129,1.003,-0.090,0.122,0.458,-0.092,66.667,495.000,1.000
-2068.163,-1732.966,-1402.175,-2544.692,-2481.379,-3074.739,-1381.502,1056.156,-0.128,1.002,-0.090,0.092,0.488,-0.122,66.667,496.000,1.000
-2060.815,-1735.417,-1405.753,-2535.046,-2473.826,-3061.282,-1384.604,1041.463,-0.128,1.001,-0.090,-0.031,0.427,-0.122,66.667,497.000,1.000
-2053.402,-1736.930,-1408.821,-2524.974,-2465.368,-3046.502,-1387.322,1025.868,-0.130,1.000,-0.091,0.061,0.458,0.000,66.667,498.000,1.000
-2045.887,-1737.076,-1411.110,-2514.301,-2455.241,-3030.213,-1388.646,1010.455,-0.130,1.001,-0.090,0.153,0.366,0.031,66.667,499.000,1.000
-2037.885,-1735.793,-1412.543,-2502.842,-2443.114,-3012.101,-1388.229,995.637,-0.129,1.002,-0.092,0.031,0.366,0.000,66.667,500.000,1.000
-2028.839,-1733.287,-1413.232,-2490.364,-2429.058,-2992.019,-1386.153,981.295,-0.129,1.003,-0.091,0.092,0.336,-0.122,66.667,501.000,1.000
-2018.304,-1729.780,-1413.296,-2476.563,-2413.309,-2969.804,-1382.520,967.199,-0.129,1.002,-0.092,0.153,0.244,-0.122,66.667,502.000,1.000
-2006.300,-1725.418,-1412.829,-2461.256,-2395.987,-2945.667,-1377.390,953.298,-0.130,1.002,-0.093,0.122,0.183,-0.153,66.667,503.000,1.000
-1993.324,-1720.279,-1411.924,-2444.537,-2377.146,-2920.202,-1371.124,939.383,-0.129,1.002,-0.093,0.122,0.092,-0.122,66.667,504.000,1.000
-1979.981,-1714.367,-1410.580,-2426.704,-2357.044,-2893.774,-1364.543,924.661,-0.127,1.003,-0.091,0.000,0.183,-0.183,66.667,505.000,1.000
-1966.621,-1707.623,-1408.683,-2408.062,-2336.084,-2866.643,-1358.358,908.299,-0.129,1.001,-0.092,0.000,0.183,-0.153,66.667,506.000,1.000
-1953.243,-1700.058,-1406.159,-2388.832,-2314.504,-2838.629,-1352.516,890.388,-0.129,1.002,-0.092,-0.031,0.122,-0.183,66.667,507.000,1.000
-1939.549,-1691.770,-1403.081,-2368.991,-2292.148,-2809.400,-1346.142,872.143,-0.128,1.002,-0.094,-0.061,0.153,-0.183,66.667,508.000,1.000
-1925.122,-1682.901,-1399.538,-2348.182,-2268.686,-2778.708,-1338.141,855.019,-0.127,1.002,-0.094,-0.244,0.153,-0.153,66.667,509.000,1.000
-1909.651,-1673.601,-1395.467,-2325.912,-2244.131,-2746.279,-1328.125,839.401,-0.129,1.000,-0.090,-0.122,0.061,-0.183,66.667,510.000,1.000
-1892.931,-1663.919,-1390.631,-2301.861,-2218.977,-2712.338,-1316.874,824.114,-0.127,1.000,-0.087,-0.214,0.092,-0.244,66.667,511.000,1.000
-1874.770,-1653.722,-1384.703,-2276.093,-2193.723,-2677.258,-1305.707,807.386,-0.127,1.002,-0.087,-0.153,0.153,-0.214,66.667,512.000,1.000
-1855.061,-1642.690,-1377.440,-2249.005,-2168.317,-2641.505,-1295.329,788.392,-0.128,1.002,-0.090,-0.122,0.122,-0.061,66.667,513.000,1.000
-1833.821,-1630.403,-1368.763,-2221.065,-2142.182,-2605.429,-1285.382,767.849,-0.127,1.002,-0.090,-0.092,0.214,0.000,66.667,514.000,1.000
-1811.137,-1616.440,-1358.685,-2192.477,-2114.492,-2568.691,-1274.822,747.521,-0.128,1.002,-0.090,-0.122,0.305,0.000,66.667,515.000,1.000
-1787.169,-1600.463,-1347.240,-2162.969,-2084.300,-2530.610,-1262.480,729.321,-0.128,1.003,-0.091,-0.061,0.244,-0.061,66.667,516.000,1.000
-1762.160,-1582.390,-1334.466,-2131.950,-2050.919,-2490.261,-1247.589,714.250,-0.127,1.002,-0.090,-0.061,0.244,-0.061,66.667,517.000,1.000
-1736.347,-1562.528,-1320.504,-2098.925,-2014.543,-2447.335,-1230.096,701.750,-0.127,1.000,-0.090,0.061,0.244,0.000,66.667,518.000,1.000
-1710.016,-1541.705,-1305.825,-2064.020,-1976.525,-2402.614,-1210.621,690.098,-0.127,1.000,-0.087,0.153,0.305,0.031,66.667,519.000,1.000
-1683.612,-1521.128,-1291.221,-2028.118,-1938.827,-2357.268,-1190.115,677.519,-0.125,1.000,-0.091,0.092,0.214,0.031,66.667,520.000,1.000
-1657.514,-1501.678,-1277.281,-1992.263,-1902.885,-2312.321,-1169.457,663.041,-0.126,1.002,-0.092,0.183,0.244,0.031,66.667,521.000,1.000
-1631.767,-1483.341,-1263.918,-1957.038,-1868.894,-2267.907,-1149.360,646.533,-0.126,1.004,-0.091,0.153,0.275,-0.031,66.667,522.000,1.000
-1606.195,-1465.448,-1250.604,-1922.502,-1835.977,-2223.855,-1130.429,628.340,-0.128,1.005,-0.091,0.092,0.305,0.031,66.667,523.000,1.000
-1580.656,-1447.403,-1236.955,-1888.535,-1803.048,-2180.323,-1113.116,608.847,-0.127,1.007,-0.089,0.122,0.275,-0.061,66.667,524.000,1.000
-1555.050,-1429.065,-1222.992,-1854.999,-1769.655,-2137.460,-1097.497,588.227,-0.127,1.007,-0.091,0.122,0.275,0.061,66.667,525.000,1.000
-1529.146,-1410.511,-1208.960,-1821.583,-1736.005,-2095.327,-1082.981,566.662,-0.125,1.006,-0.091,0.153,0.336,0.000,66.667,526.000,1.000
-1502.517,-1391.647,-1194.914,-1787.719,-1702.301,-2053.314,-1068.377,544.765,-0.124,1.007,-0.092,0.092,0.336,0.061,66.667,527.000,1.000
-1474.676,-1372.017,-1180.501,-1752.760,-1668.237,-2010.492,-1052.446,523.542,-0.125,1.005,-0.094,0.061,0.458,0.031,66.667,528.000,1.000
-1445.428,-1351.099,-1165.193,-1716.348,-1633.352,-1966.185,-1034.618,503.650,-0.123,1.004,-0.093,0.000,0.458,0.031,66.667,529.000,1.000
-1415.129,-1328.843,-1148.756,-1678.705,-1597.657,-1920.151,-1015.356,484.744,-0.123,1.004,-0.090,-0.183,0.488,0.000,66.667,530.000,1.000
-1384.413,-1305.716,-1131.383,-1640.433,-1561.530,-1872.980,-995.705,465.861,-0.122,1.003,-0.092,-0.214,0.519,0.092,66.667,531.000,1.000
-1353.636,-1282.195,-1113.321,-1601.939,-1525.114,-1825.322,-976.286,446.482,-0.124,1.001,-0.092,-0.061,0.549,0.183,66.667,532.000,1.000
-1322.582,-1258.239,-1094.506,-1563.030,-1487.878,-1777.460,-956.664,427.185,-0.122,1.000,-0.091,-0.092,0.580,0.061,66.667,533.000,1.000
-1290.704,-1233.316,-1074.648,-1523.184,-1448.876,-1729.131,-935.813,409.139,-0.123,1.002,-0.090,-0.092,0.702,-0.031,66.667,534.000,1.000
-1257.688,-1206.972,-1053.642,-1482.240,-1407.596,-1679.582,-913.161,392.917,-0.125,1.004,-0.091,0.000,0.641,-0.153,66.667,535.000,1.000
-1223.827,-1179.291,-1031.793,-1440.631,-1364.532,-1628.568,-889.004,377.969,-0.124,1.004,-0.094,0.061,0.671,-0.153,66.667,536.000,1.000
-1189.883,-1150.810,-1009.501,-1398.965,-1320.860,-1576.272,-864.067,363.269,-0.125,1.002,-0.095,0.031,0.580,-0.183,66.667,537.000,1.000
-1156.495,-1122.032,-986.929,-1357.474,-1277.568,-1523.220,-839.091,348.091,-0.125,1.001,-0.095,0.061,0.610,-0.244,66.667,538.000,1.000
-1123.782,-1093.252,-964.068,-1316.003,-1235.134,-1470.134,-814.992,331.891,-0.123,1.000,-0.093,0.092,0.610,-0.305,66.667,539.000,1.000
-1091.371,-1064.686,-940.935,-1274.299,-1193.742,-1417.473,-792.687,314.194,-0.123,1.002,-0.094,0.061,0.610,-0.305,66.667,540.000,1.000
-1058.642,-1036.512,-917.610,-1232.139,-1153.413,-1365.585,-772.293,295.065,-0.121,1.004,-0.094,0.092,0.580,-0.336,66.667,541.000,1.000
-1025.249,-1008.976,-894.333,-1189.616,-1114.177,-1314.520,-753.070,275.068,-0.125,1.001,-0.094,0.122,0.610,-0.336,66.667,542.000,1.000
-991.439,-982.325,-871.534,-1147.288,-1076.053,-1264.493,-734.270,254.655,-0.123,1.001,-0.094,0.031,0.641,-0.397,66.667,543.000,1.000
-957.603,-956.315,-849.328,-1105.656,-1038.584,-1215.691,-715.512,234.199,-0.125,0.998,-0.094,0.122,0.671,-0.519,66.667,544.000,1.000
-923.593,-929.912,-827.071,-1064.500,-1000.590,-1167.401,-696.301,214.574,-0.127,0.998,-0.096,0.244,0.580,-0.580,66.667,545.000,1.000
-888.779,-901.874,-803.787,-1023.042,-960.857,-1118.563,-675.850,196.924,-0.130,0.996,-0.093,0.305,0.610,-0.580,66.667,546.000,1.000
-852.873,-871.826,-779.111,-980.891,-919.295,-1068.461,-653.781,181.524,-0.127,0.997,-0.092,0.458,0.580,-0.641,66.667,547.000,1.000
-816.489,-840.664,-753.731,-938.572,-877.111,-1017.517,-630.603,167.311,-0.126,0.995,-0.092,0.488,0.427,-0.732,66.667,548.000,1.000
-780.827,-809.876,-728.848,-897.106,-835.761,-966.935,-607.285,152.795,-0.130,0.993,-0.093,0.458,0.427,-0.732,66.667,549.000,1.000
-746.896,-780.490,-705.306,-857.250,-795.841,-917.527,-584.582,137.215,-0.128,0.993,-0.093,0.549,0.305,-0.763,66.667,550.000,1.000
-714.940,-752.550,-683.183,-819.107,-756.979,-869.675,-562.854,120.731,-0.130,0.995,-0.095,0.702,0.183,-0.885,66.667,551.000,1.000
-684.365,-725.439,-661.975,-782.257,-718.695,-823.159,-542.257,103.741,-0.131,0.999,-0.092,0.793,0.153,-0.916,66.667,552.000,1.000
-654.094,-698.492,-641.026,-745.985,-681.028,-777.614,-522.722,86.425,-0.130,1.000,-0.092,0.763,0.122,-0.946,66.667,553.000,1.000
-623.182,-671.390,-619.852,-709.506,-644.320,-732.770,-503.747,68.927,-0.130,1.001,-0.095,0.824,0.092,-0.916,66.667,554.000,1.000
-591.301,-644.163,-598.282,-672.225,-608.549,-688.148,-484.407,51.785,-0.130,1.001,-0.098,0.824,-0.031,-0.946,66.667,555.000,1.000
-558.797,-616.993,-576.484,-633.921,-572.985,-643.489,-463.764,35.970,-0.130,1.003,-0.096,0.641,-0.061,-0.977,66.667,556.000,1.000
-526.495,-590.187,-554.970,-594.922,-536.714,-598.671,-441.548,22.200,-0.131,1.002,-0.094,0.763,-0.244,-0.916,66.667,557.000,1.000
-495.319,-564.154,-534.399,-555.993,-499.404,-553.884,-418.387,10.307,-0.132,1.002,-0.097,0.671,-0.336,-0.854,66.667,558.000,1.000
-465.764,-539.139,-515.067,-517.878,-461.410,-509.384,-395.244,-0.500,-0.132,1.001,-0.102,0.702,-0.397,-0.793,66.667,559.000,1.000
-437.610,-514.966,-496.561,-480.958,-423.373,-465.102,-372.808,-11.038,-0.132,1.003,-0.100,0.641,-0.366,-0.793,66.667,560.000,1.000
-410.086,-491.060,-477.979,-445.188,-385.947,-421.222,-351.428,-22.042,-0.130,1.004,-0.101,0.580,-0.427,-0.702,66.667,561.000,1.000
-382.185,-466.619,-458.315,-410.148,-349.679,-377.886,-331.230,-34.243,-0.130,1.005,-0.099,0.458,-0.427,-0.671,66.667,562.000,1.000
-352.782,-440.665,-436.628,-375.016,-314.572,-335.032,-311.906,-47.880,-0.130,1.004,-0.098,0.366,-0.519,-0.702,66.667,563.000,1.000
-320.744,-412.268,-412.169,-338.762,-279.827,-292.254,-292.531,-62.130,-0.130,1.007,-0.100,0.305,-0.702,-0.702,66.667,564.000,1.000
-285.333,-381.119,-384.741,-300.638,-244.345,-248.760,-271.931,-75.365,-0.129,1.009,-0.102,0.153,-0.702,-0.671,66.667,565.000,1.000
-246.763,-347.979,-355.120,-260.690,-207.631,-204.291,-249.471,-86.228,-0.129,1.011,-0.100,0.092,-0.793,-0.702,66.667,566.000,1.000
-206.506,-314.582,-325.015,-219.899,-170.290,-159.203,-225.530,-94.534,-0.128,1.009,-0.098,-0.153,-0.702,-0.732,66.667,567.000,1.000
-166.846,-282.940,-296.439,-179.705,-133.654,-114.493,-201.201,-101.317,-0.128,1.007,-0.097,-0.336,-0.702,-0.610,66.667,568.000,1.000
-129.926,-254.498,-270.887,-141.381,-99.059,-71.442,-177.768,-108.410,-0.127,1.008,-0.095,-0.366,-0.732,-0.549,66.667,569.000,1.000
-96.954,-229.589,-248.803,-105.673,-67.235,-30.881,-156.388,-117.712,-0.128,1.008,-0.096,-0.458,-0.702,-0.458,66.667,570.000,1.000
-67.913,-207.311,-229.479,-72.615,-37.883,6.873,-137.636,-130.038,-0.127,1.009,-0.099,-0.610,-0.671,-0.458,66.667,571.000,1.000
-41.806,-185.975,-211.327,-41.523,-9.780,42.555,-121.041,-144.415,-0.124,1.009,-0.096,-0.732,-0.702,-0.336,66.667,572.000,1.000
-17.339,-163.993,-192.689,-11.410,18.428,77.411,-105.295,-158.777,-0.125,1.005,-0.097,-0.793,-0.641,-0.214,66.667,573.000,1.000
6.269,-140.748,-172.827,18.282,47.226,112.164,-89.314,-171.596,-0.122,1.006,-0.097,-0.916,-0.580,-0.031,66.667,574.000,1.000
29.014,-116.792,-152.270,47.355,76.014,146.733,-73.013,-182.747,-0.122,1.003,-0.096,-0.916,-0.519,0.031,66.667,575.000,1.000
50.608,-93.224,-132.195,75.306,103.886,180.302,-56.886,-192.877,-0.122,1.003,-0.096,-0.916,-0.397,0.153,66.667,576.000,1.000
71.089,-70.923,-113.494,101.904,130.404,212.444,-41.181,-202.518,-0.125,1.003,-0.094,-0.977,-0.244,0.092,66.667,577.000,1.000
90.949,-50.119,-96.321,127.404,155.697,243.285,-25.688,-211.941,-0.124,1.004,-0.094,-0.916,-0.275,0.061,66.667,578.000,1.000
110.781,-30.412,-80.162,152.410,180.170,273.238,-10.039,-221.321,-0.123,1.000,-0.091,-0.946,-0.122,0.092,66.667,579.000,1.000
130.756,-11.181,-64.288,177.511,204.266,302.918,5.957,-230.665,-0.121,0.999,-0.093,-0.824,-0.122,0.122,66.667,580.000,1.000
150.353,7.884,-48.355,202.887,228.244,332.375,22.126,-239.784,-0.121,0.998,-0.091,-0.793,-0.061,0.153,66.667,581.000,1.000
168.673,26.608,-32.557,228.230,252.064,361.361,38.019,-248.428,-0.124,0.995,-0.089,-0.702,-0.061,0.031,66.667,582.000,1.000
184.984,44.541,-17.381,253.005,275.454,389.458,53.231,-256.384,-0.122,0.994,-0.089,-0.580,0.031,0.092,66.667,583.000,1.000
198.940,61.118,-3.393,276.648,297.853,416.153,67.579,-263.710,-0.125,0.993,-0.089,-0.580,0.092,0.031,66.667,584.000,1.000
210.638,75.903,9.010,298.761,318.647,441.287,81.128,-270.786,-0.124,0.994,-0.093,-0.519,0.183,-0.122,66.667,585.000,1.000
220.758,89.101,20.004,319.422,337.899,465.025,94.238,-277.860,-0.124,0.996,-0.093,-0.458,0.122,-0.153,66.667,586.000,1.000
230.434,101.666,30.478,339.178,356.536,488.136,107.326,-284.783,-0.123,0.995,-0.091,-0.275,0.183,-0.214,66.667,587.000,1.000
240.784,114.754,41.516,358.648,375.588,511.280,120.507,-291.253,-0.123,0.994,-0.090,-0.214,0.244,-0.305,66.667,588.000,1.000
252.353,128.950,53.687,378.065,395.289,534.368,133.510,-297.223,-0.124,0.996,-0.095,-0.153,0.183,-0.305,66.667,589.000,1.000
264.806,143.950,66.671,397.092,414.913,556.799,145.931,-302.987,-0.125,0.996,-0.092,-0.061,0.153,-0.366,66.667,590.000,1.000
277.240,158.969,79.545,415.131,433.476,577.662,157.614,-308.840,-0.123,0.998,-0.094,0.061,0.122,-0.488,66.667,591.000,1.000
288.954,173.479,91.619,431.899,450.555,596.784,168.784,-314.740,-0.125,0.998,-0.093,-0.031,0.092,-0.641,66.667,592.000,1.000
300.027,187.679,103.053,447.766,466.597,614.844,179.842,-320.322,-0.125,0.996,-0.096,0.092,0.061,-0.610,66.667,593.000,1.000
311.114,202.235,114.642,463.452,482.461,632.761,190.920,-325.338,-0.125,0.997,-0.091,0.183,0.092,-0.549,66.667,594.000,1.000
322.777,217.575,127.080,479.477,498.629,651.208,201.693,-330.027,-0.126,0.998,-0.091,0.244,0.153,-0.549,66.667,595.000,1.000
335.162,233.487,140.530,496.006,514.832,670.011,211.778,-334.957,-0.127,1.000,-0.093,0.397,0.061,-0.580,66.667,596.000,1.000
348.182,249.327,154.770,512.980,530.344,688.804,221.153,-340.509,-0.127,1.001,-0.092,0.336,0.122,-0.641,66.667,597.000,1.000
361.802,264.561,169.492,530.255,544.780,707.319,230.251,-346.276,-0.126,1.003,-0.092,0.366,0.061,-0.610,66.667,598.000,1.000
376.161,279.135,184.517,547.701,558.552,725.505,239.860,-350.944,-0.127,1.004,-0.093,0.427,0.031,-0.488,66.667,599.000,1.000
391.419,293.353,199.782,565.172,572.473,743.617,250.772,-353.113,-0.127,1.005,-0.092,0.366,-0.122,-0.458,66.667,600.000,1.000
407.414,307.418,215.072,582.311,586.970,761.428,263.178,-352.456,-0.128,1.007,-0.093,0.366,-0.183,-0.366,66.667,601.000,1.000
423.322,321.039,229.751,598.298,601.651,778.305,276.229,-350.128,-0.129,1.006,-0.093,0.336,-0.214,-0.488,66.667,602.000,1.000
437.752,333.492,242.758,611.986,615.491,793.324,288.327,-348.083,-0.130,1.008,-0.093,0.366,-0.275,-0.397,66.667,603.000,1.000
449.421,344.121,253.093,622.480,627.329,805.742,297.945,-348.062,-0.132,1.009,-0.093,0.305,-0.275,-0.366,66.667,604.000,1.000
457.960,352.892,260.539,629.800,636.556,815.721,304.396,-350.758,-0.129,1.009,-0.090,0.122,-0.366,-0.366,66.667,605.000,1.000
464.273,360.596,266.038,635.182,643.679,824.035,308.293,-355.372,-0.129,1.010,-0.089,0.061,-0.427,-0.305,66.667,606.000,1.000
470.104,368.474,271.360,640.705,650.118,832.040,311.454,-359.933,-0.125,1.004,-0.089,0.061,-0.488,-0.214,66.667,607.000,1.000
477.065,377.555,278.159,648.337,657.426,840.954,316.127,-362.234,-0.125,0.998,-0.092,0.092,-0.488,-0.244,66.667,608.000,1.000
485.695,388.012,287.004,658.877,666.437,851.166,323.740,-361.018,-0.123,0.997,-0.094,0.061,-0.427,-0.153,66.667,609.000,1.000
495.260,398.994,297.102,671.534,676.817,862.269,333.988,-356.792,-0.123,1.000,-0.094,0.183,-0.397,-0.092,66.667,610.000,1.000
504.513,409.332,307.032,684.551,687.446,873.070,345.141,-351.445,-0.124,1.001,-0.092,0.366,-0.244,-0.031,66.667,611.000,1.000
512.557,418.322,315.712,696.181,697.132,882.460,355.148,-347.020,-0.124,1.002,-0.092,0.305,-0.153,0.061,66.667,612.000,1.000
519.127,425.861,322.768,705.341,705.080,889.718,362.589,-344.750,-0.126,1.005,-0.094,0.305,-0.214,0.153,66.667,613.000,1.000
524.488,432.262,328.512,711.870,711.129,894.776,367.211,-344.615,-0.125,1.004,-0.094,0.122,-0.183,0.183,66.667,614.000,1.000
529.181,438.056,333.662,716.390,715.709,898.427,369.904,-345.555,-0.125,1.003,-0.097,0.122,-0.183,0.183,66.667,615.000,1.000
533.646,443.643,338.727,719.752,719.267,901.236,371.933,-346.460,-0.120,1.000,-0.094,0.214,-0.183,0.214,66.667,616.000,1.000
538.065,449.087,343.714,722.563,721.803,903.305,374.115,-346.968,-0.119,1.000,-0.097,0.397,0.000,0.183,66.667,617.000,1.000
542.554,454.384,348.479,725.205,723.294,904.529,376.761,-347.091,-0.119,0.999,-0.099,0.397,-0.031,0.244,66.667,618.000,1.000
547.320,459.691,353.142,727.919,724.122,905.067,379.974,-346.655,-0.120,1.000,-0.098,0.336,0.061,0.244,66.667,619.000,1.000
552.583,465.216,358.101,730.759,724.802,905.514,383.675,-345.454,-0.119,1.003,-0.094,0.458,0.244,0.183,66.667,620.000,1.000
558.433,471.069,363.745,733.643,725.670,906.085,387.599,-343.491,-0.121,1.002,-0.094,0.519,0.244,0.092,66.667,621.000,1.000
564.627,477.111,370.157,736.368,726.816,906.687,391.407,-340.918,-0.122,1.002,-0.098,0.519,0.275,0.061,66.667,622.000,1.000
570.649,482.958,376.992,738.680,728.149,907.016,394.827,-337.903,-0.122,1.002,-0.098,0.519,0.366,0.000,66.667,623.000,1.000
576.172,488.324,383.787,740.480,729.481,906.891,397.709,-334.661,-0.124,1.001,-0.097,0.580,0.366,-0.092,66.667,624.000,1.000
581.317,493.248,390.252,741.849,730.489,906.515,399.907,-331.596,-0.122,1.000,-0.095,0.458,0.427,-0.244,66.667,625.000,1.000
586.244,497.806,396.098,742.751,730.661,905.651,401.116,-329.304,-0.123,1.001,-0.099,0.519,0.366,-0.397,66.667,626.000,1.000
590.711,501.772,400.896,742.833,729.521,903.758,400.981,-328.187,-0.123,0.999,-0.100,0.610,0.427,-0.519,66.667,627.000,1.000
594.226,504.842,404.326,741.721,727.106,900.317,399.503,-327.983,-0.123,1.000,-0.100,0.610,0.397,-0.610,66.667,628.000,1.000
596.489,507.024,406.503,739.414,724.032,895.320,397.317,-327.703,-0.123,1.001,-0.100,0.519,0.397,-0.732,66.667,629.000,1.000
597.605,508.666,407.994,736.417,721.134,889.695,395.587,-325.966,-0.123,1.001,-0.100,0.549,0.397,-0.793,66.667,630.000,1.000
597.964,510.140,409.453,733.468,719.011,884.474,395.384,-321.697,-0.123,1.000,-0.097,0.549,0.519,-0.854,66.667,631.000,1.000
597.861,511.438,411.157,730.910,717.582,880.234,396.738,-315.081,-0.123,1.001,-0.097,0.549,0.458,-0.916,66.667,632.000,1.000
597.240,512.206,412.918,728.475,716.118,876.636,398.525,-307.640,-0.122,1.000,-0.099,0.488,0.397,-0.916,66.667,633.000,1.000
595.810,512.181,414.477,725.735,713.792,872.865,399.521,-301.038,-0.123,1.001,-0.098,0.580,0.519,-0.854,66.667,634.000,1.000
593.347,511.550,415.853,722.617,710.319,868.620,399.436,-295.787,-0.125,1.001,-0.100,0.519,0.519,-0.916,66.667,635.000,1.000
590.017,511.029,417.381,719.547,706.260,864.044,399.001,-291.024,-0.126,1.003,-0.099,0.549,0.397,-0.763,66.667,636.000,1.000
586.440,511.484,419.465,717.079,702.543,859.683,399.160,-285.489,-0.125,1.004,-0.100,0.519,0.366,-0.793,66.667,637.000,1.000
583.288,513.228,422.120,715.310,699.567,855.661,400.068,-278.745,-0.126,1.004,-0.100,0.427,0.397,-0.671,66.667,638.000,1.000
580.850,515.605,424.764,713.620,696.711,851.262,400.835,-271.584,-0.127,1.003,-0.101,0.397,0.397,-0.641,66.667,639.000,1.000
578.947,517.345,426.540,711.046,692.731,845.581,400.234,-265.392,-0.127,1.001,-0.099,0.336,0.305,-0.549,66.667,640.000,1.000
577.047,517.306,426.760,706.857,686.697,837.800,397.580,-261.091,-0.128,1.003,-0.097,0.305,0.214,-0.458,66.667,641.000,1.000
574.398,514.885,425.109,700.784,678.495,827.816,393.082,-258.560,-0.128,1.003,-0.098,0.275,0.000,-0.366,66.667,642.000,1.000
570.356,510.104,421.663,693.059,668.717,816.117,387.749,-256.726,-0.130,1.004,-0.099,0.275,0.061,-0.427,66.667,643.000,1.000
564.808,503.616,416.937,684.353,658.346,803.456,382.921,-254.143,-0.129,1.002,-0.099,0.153,-0.092,-0.305,66.667,644.000,1.000
558.235,496.489,411.778,675.469,648.349,790.712,379.482,-249.824,-0.129,1.000,-0.097,0.122,-0.153,-0.275,66.667,645.000,1.000
551.294,489.683,406.942,666.861,638.991,778.127,377.211,-244.040,-0.129,1.000,-0.095,0.092,-0.183,-0.244,66.667,646.000,1.000
544.433,483.592,402.754,658.358,629.489,765.560,374.877,-238.247,-0.129,0.999,-0.097,0.153,-0.336,-0.183,66.667,647.000,1.000
537.865,478.161,399.179,649.497,618.866,752.784,371.231,-233.867,-0.129,1.000,-0.098,0.183,-0.427,-0.244,66.667,648.000,1.000
531.628,473.166,396.038,639.987,606.985,739.717,365.836,-231.206,-0.129,1.000,-0.095,0.122,-0.488,-0.275,66.667,649.000,1.000
525.580,468.300,393.079,629.854,594.605,726.598,359.121,-229.432,-0.128,0.999,-0.097,0.061,-0.641,-0.214,66.667,650.000,1.000
519.601,463.362,390.115,619.439,582.864,713.570,352.132,-227.107,-0.127,0.998,-0.096,0.153,-0.702,-0.183,66.667,651.000,1.000
513.756,458.394,387.160,609.235,572.713,701.000,346.039,-222.944,-0.127,0.998,-0.101,0.214,-0.671,-0.336,66.667,652.000,1.000
508.224,453.581,384.358,599.608,564.581,689.241,341.541,-216.373,-0.127,0.996,-0.097,0.305,-0.885,-0.275,66.667,653.000,1.000
503.221,449.203,381.954,590.690,558.368,678.389,338.713,-207.534,-0.123,0.999,-0.098,0.366,-0.977,-0.305,66.667,654.000,1.000
498.906,445.546,380.191,582.371,553.514,668.411,337.165,-197.052,-0.122,0.997,-0.095,0.397,-0.946,-0.336,66.667,655.000,1.000
495.035,442.514,378.906,574.218,548.887,658.609,336.109,-186.098,-0.122,0.997,-0.100,0.366,-0.916,-0.397,66.667,656.000,1.000
490.781,439.362,377.354,565.559,542.864,648.075,334.544,-176.288,-0.122,0.998,-0.104,0.366,-0.885,-0.305,66.667,657.000,1.000
485.143,435.066,374.641,555.967,534.039,636.140,331.817,-168.848,-0.120,0.998,-0.103,0.305,-0.763,-0.305,66.667,658.000,1.000
477.624,429.022,370.423,545.666,522.048,622.711,328.007,-163.815,-0.120,0.999,-0.101,0.244,-0.732,-0.397,66.667,659.000,1.000
468.512,421.395,365.176,535.370,507.807,608.473,323.644,-160.124,-0.120,0.999,-0.100,0.305,-0.671,-0.397,66.667,660.000,1.000
458.588,412.932,359.817,525.760,493.007,594.185,319.157,-156.315,-0.118,0.999,-0.100,0.366,-0.580,-0.488,66.667,661.000,1.000
448.724,404.542,355.207,517.137,479.269,580.680,314.668,-151.191,-0.120,1.001,-0.101,0.427,-0.580,-0.427,66.667,662.000,1.000
439.663,397.006,351.830,509.461,467.616,568.549,310.242,-144.117,-0.120,1.004,-0.099,0.275,-0.549,-0.549,66.667,663.000,1.000
431.733,390.683,349.557,502.363,458.244,557.753,306.010,-135.143,-0.118,1.005,-0.099,0.336,-0.458,-0.580,66.667,664.000,1.000
424.605,385.322,347.618,495.077,450.486,547.717,302.043,-124.948,-0.120,1.007,-0.098,0.244,-0.397,-0.519,66.667,665.000,1.000
417.569,380.342,345.015,486.749,443.205,537.326,298.276,-114.501,-0.122,1.004,-0.101,0.214,-0.336,-0.610,66.667,666.000,1.000
410.103,375.288,341.121,476.858,435.407,525.755,294.457,-104.720,-0.122,1.005,-0.101,0.122,-0.214,-0.610,66.667,667.000,1.000
402.092,369.973,335.778,465.316,426.562,512.639,290.082,-96.434,-0.125,1.004,-0.102,0.031,-0.214,-0.641,66.667,668.000,1.000
393.557,364.199,328.979,452.207,416.310,497.846,284.429,-90.492,-0.123,1.003,-0.101,0.000,-0.153,-0.732,66.667,669.000,1.000
384.297,357.464,320.629,437.577,404.152,481.443,276.841,-87.507,-0.124,1.005,-0.098,-0.031,-0.122,-0.702,66.667,670.000,1.000
373.950,349.092,310.658,421.578,389.736,463.248,267.174,-87.279,-0.123,1.002,-0.099,-0.092,-0.122,-0.793,66.667,671.000,1.000
362.398,338.702,299.377,404.708,373.352,443.405,256.070,-88.564,-0.123,1.002,-0.098,-0.122,-0.122,-0.732,66.667,672.000,1.000
350.091,326.724,287.693,387.906,356.128,422.739,244.894,-89.419,-0.123,1.002,-0.097,-0.244,-0.092,-0.763,66.667,673.000,1.000
337.995,314.466,276.917,372.258,339.700,402.684,235.230,-87.973,-0.123,1.001,-0.099,-0.244,-0.061,-0.824,66.667,674.000,1.000
327.118,303.516,268.185,358.462,325.562,384.816,228.084,-83.262,-0.123,1.002,-0.101,-0.305,-0.031,-0.763,66.667,675.000,1.000
317.976,294.923,261.896,346.504,314.421,369.658,223.364,-75.597,-0.125,1.002,-0.100,-0.366,0.000,-0.885,66.667,676.000,1.000
310.301,288.707,257.579,335.684,305.817,356.747,219.918,-66.402,-0.125,1.002,-0.099,-0.366,-0.122,-0.763,66.667,677.000,1.000
303.097,283.915,254.110,324.928,298.353,344.985,216.121,-57.570,-0.126,1.000,-0.095,-0.244,-0.061,-0.793,66.667,678.000,1.000
295.005,279.040,250.107,313.202,290.352,333.092,210.674,-50.578,-0.126,1.000,-0.098,-0.275,-0.153,-0.641,66.667,679.000,1.000
284.994,272.716,244.525,299.993,280.710,320.288,203.235,-45.759,-0.127,1.001,-0.100,-0.214,-0.183,-0.671,66.667,680.000,1.000
273.053,264.486,237.217,285.637,269.463,306.285,194.492,-42.275,-0.126,1.001,-0.100,-0.305,-0.122,-0.641,66.667,681.000,1.000
260.144,254.923,228.944,271.061,257.486,291.548,185.514,-38.933,-0.126,1.001,-0.098,-0.336,-0.153,-0.549,66.667,682.000,1.000
247.461,245.069,220.769,257.244,245.704,276.879,177.160,-34.896,-0.128,1.004,-0.096,-0.305,-0.153,-0.519,66.667,683.000,1.000
235.705,235.709,213.450,244.883,234.483,262.946,170.024,-29.859,-0.126,1.001,-0.098,-0.397,-0.275,-0.519,66.667,684.000,1.000
224.763,226.901,207.082,234.183,223.439,250.052,164.321,-24.154,-0.126,1.000,-0.097,-0.366,-0.336,-0.488,66.667,685.000,1.000
213.840,218.028,201.094,224.733,211.813,237.576,159.684,-18.625,-0.128,1.001,-0.098,-0.427,-0.336,-0.580,66.667,686.000,1.000
202.030,208.427,194.764,215.717,199.235,224.775,155.457,-13.901,-0.126,1.002,-0.096,-0.458,-0.397,-0.458,66.667,687.000,1.000
189.099,198.138,187.887,206.519,186.296,211.507,151.309,-9.670,-0.125,1.004,-0.096,-0.397,-0.397,-0.397,66.667,688.000,1.000
175.880,187.996,180.927,197.017,174.211,198.273,147.270,-4.991,-0.127,1.004,-0.092,-0.397,-0.427,-0.336,66.667,689.000,1.000
163.778,178.967,174.487,187.244,163.798,185.761,143.178,0.621,-0.126,1.003,-0.097,-0.397,-0.397,-0.336,66.667,690.000,1.000
153.809,171.479,168.705,177.037,154.854,173.801,138.508,6.692,-0.125,1.005,-0.098,-0.397,-0.458,-0.275,66.667,691.000,1.000
146.003,165.243,163.173,166.111,146.360,161.702,132.824,12.283,-0.124,1.004,-0.098,-0.427,-0.488,-0.275,66.667,692.000,1.000
139.511,159.485,157.213,154.311,137.206,148.733,126.068,16.727,-0.125,1.001,-0.099,-0.427,-0.427,-0.305,66.667,693.000,1.000
133.136,153.305,150.249,141.701,126.831,134.521,118.361,19.933,-0.125,1.001,-0.099,-0.427,-0.488,-0.153,66.667,694.000,1.000
125.852,146.056,142.107,128.549,115.449,119.392,109.903,22.336,-0.123,1.002,-0.098,-0.488,-0.427,-0.214,66.667,695.000,1.000
117.176,137.609,133.069,115.304,103.735,103.833,101.128,24.615,-0.123,1.000,-0.098,-0.519,-0.427,-0.183,66.667,696.000,1.000
107.263,128.244,123.660,102.371,92.198,88.422,92.564,27.199,-0.123,0.999,-0.096,-0.397,-0.366,-0.183,66.667,697.000,1.000
96.640,118.324,114.229,89.811,80.791,73.440,84.387,29.880,-0.121,1.001,-0.101,-0.305,-0.427,-0.153,66.667,698.000,1.000
85.834,108.095,104.775,77.247,69.103,58.703,76.168,31.900,-0.123,1.001,-0.097,-0.214,-0.397,-0.153,66.667,699.000,1.000
75.360,97.914,95.308,64.321,57.009,44.156,67.433,32.767,-0.123,1.001,-0.100,-0.336,-0.336,-0.153,66.667,700.000,1.000
65.959,88.490,86.314,51.419,45.120,30.000,58.605,33.175,-0.124,1.002,-0.101,-0.244,-0.366,-0.153,66.667,701.000,1.000
58.188,80.306,78.411,39.401,34.082,16.741,50.724,34.421,-0.124,1.001,-0.102,-0.214,-0.336,-0.214,66.667,702.000,1.000
51.611,72.845,71.460,28.500,23.552,4.322,44.075,36.785,-0.124,1.003,-0.104,-0.214,-0.336,-0.336,66.667,703.000,1.000
44.998,65.048,64.719,18.082,12.591,-7.929,37.860,39.357,-0.122,1.004,-0.100,-0.305,-0.214,-0.305,66.667,704.000,1.000
37.563,56.620,57.963,7.654,1.153,-20.090,31.461,41.610,-0.121,1.003,-0.101,-0.244,-0.092,-0.244,66.667,705.000,1.000
29.579,48.394,51.845,-2.467,-9.545,-31.547,25.341,44.196,-0.122,1.002,-0.099,-0.244,-0.153,-0.305,66.667,706.000,1.000
21.768,41.367,47.129,-11.614,-18.329,-41.388,20.450,47.951,-0.121,1.004,-0.098,-0.275,-0.183,-0.183,66.667,707.000,1.000
14.543,35.821,43.926,-19.389,-25.164,-49.289,17.230,52.917,-0.122,1.002,-0.098,-0.183,-0.244,-0.214,66.667,708.000,1.000
7.880,31.321,41.714,-25.791,-30.961,-55.760,15.264,58.461,-0.122,1.001,-0.100,-0.275,-0.183,-0.244,66.667,709.000,1.000
1.435,27.108,39.665,-31.186,-36.860,-61.617,13.452,63.650,-0.120,1.003,-0.100,-0.153,-0.092,-0.183,66.667,710.000,1.000
-5.325,22.490,36.958,-36.234,-43.589,-67.877,10.490,67.588,-0.122,1.004,-0.100,-0.122,-0.061,-0.183,66.667,711.000,1.000
-12.769,17.274,33.283,-41.532,-50.948,-74.900,5.769,70.117,-0.124,1.003,-0.103,-0.122,-0.092,-0.153,66.667,712.000,1.000
-20.617,11.964,29.168,-47.128,-57.858,-82.159,0.066,72.262,-0.121,1.003,-0.099,-0.214,-0.092,-0.214,66.667,713.000,1.000
-27.890,7.396,25.676,-52.512,-63.276,-88.760,-4.959,75.485,-0.123,1.001,-0.096,-0.214,0.092,-0.092,66.667,714.000,1.000
-33.487,4.075,23.639,-57.114,-67.084,-93.975,-8.075,80.467,-0.121,1.000,-0.096,-0.244,0.061,-0.122,66.667,715.000,1.000
-36.906,1.838,23.083,-60.761,-70.050,-97.999,-9.200,86.801,-0.123,1.002,-0.098,-0.183,0.153,-0.153,66.667,716.000,1.000
-38.573,-0.016,23.282,-63.789,-73.181,-101.593,-9.156,93.529,-0.123,1.002,-0.098,-0.031,0.244,-0.183,66.667,717.000,1.000
-39.714,-2.434,23.051,-66.938,-77.249,-105.961,-9.159,99.574,-0.123,1.001,-0.100,-0.122,0.305,-0.244,66.667,718.000,1.000
-42.001,-6.485,20.949,-71.312,-82.920,-112.595,-10.568,103.691,-0.121,1.002,-0.096,-0.092,0.305,-0.244,66.667,719.000,1.000
-47.000,-13.167,15.674,-78.156,-90.812,-122.380,-14.568,104.747,-0.120,1.002,-0.100,-0.122,0.275,-0.305,66.667,720.000,1.000
-55.340,-22.726,6.809,-88.139,-100.839,-135.052,-21.452,102.696,-0.122,1.003,-0.096,-0.214,0.275,-0.336,66.667,721.000,1.000
-66.258,-34.186,-4.745,-100.809,-111.852,-148.977,-30.318,98.937,-0.119,1.003,-0.097,-0.305,0.366,-0.366,66.667,722.000,1.000
-78.064,-45.838,-17.299,-114.818,-122.368,-162.421,-39.692,95.317,-0.119,1.001,-0.097,-0.275,0.488,-0.336,66.667,723.000,1.000
-89.061,-56.171,-29.217,-128.538,-131.515,-174.545,-48.343,92.999,-0.119,1.003,-0.100,-0.275,0.488,-0.366,66.667,724.000,1.000
-98.213,-64.439,-39.412,-140.604,-139.258,-185.023,-55.613,92.182,-0.119,1.005,-0.099,-0.336,0.549,-0.305,66.667,725.000,1.000
-105.383,-70.750,-47.556,-150.324,-146.047,-193.951,-61.367,92.461,-0.120,1.004,-0.099,-0.336,0.610,-0.397,66.667,726.000,1.000
-111.068,-75.754,-53.897,-157.771,-152.330,-201.450,-65.756,93.386,-0.119,1.002,-0.096,-0.458,0.641,-0.366,66.667,727.000,1.000
-115.815,-80.028,-58.815,-163.395,-158.142,-207.670,-68.924,94.830,-0.119,1.004,-0.100,-0.458,0.549,-0.427,66.667,728.000,1.000
-119.810,-83.702,-62.481,-167.610,-163.125,-212.728,-70.929,96.853,-0.122,1.003,-0.096,-0.397,0.641,-0.488,66.667,729.000,1.000
-122.996,-86.679,-64.954,-170.751,-166.989,-216.494,-71.914,99.347,-0.123,1.001,-0.098,-0.366,0.610,-0.580,66.667,730.000,1.000
-125.397,-89.030,-66.477,-173.192,-169.821,-219.186,-72.273,101.964,-0.126,1.002,-0.099,-0.366,0.580,-0.549,66.667,731.000,1.000
-127.169,-91.065,-67.469,-175.274,-171.978,-221.241,-72.574,104.320,-0.126,1.001,-0.098,-0.427,0.610,-0.549,66.667,732.000,1.000
-128.524,-93.164,-68.340,-177.150,-173.856,-223.274,-73.297,106.135,-0.123,1.003,-0.097,-0.488,0.549,-0.610,66.667,733.000,1.000
-129.859,-95.725,-69.459,-178.877,-176.006,-226.013,-74.766,107.038,-0.124,1.003,-0.100,-0.580,0.580,-0.671,66.667,734.000,1.000
-131.738,-99.050,-71.075,-180.497,-179.112,-229.725,-77.107,106.604,-0.123,1.006,-0.098,-0.519,0.488,-0.671,66.667,735.000,1.000
-134.454,-102.972,-73.062,-181.874,-183.416,-234.065,-79.998,104.911,-0.124,1.008,-0.098,-0.610,0.458,-0.641,66.667,736.000,1.000
-137.697,-106.737,-74.846,-182.705,-188.296,-237.865,-82.660,102.841,-0.123,1.005,-0.098,-0.610,0.519,-0.671,66.667,737.000,1.000
-140.764,-109.365,-75.742,-182.749,-192.418,-239.948,-84.241,101.762,-0.125,1.002,-0.102,-0.732,0.397,-0.702,66.667,738.000,1.000
-143.075,-110.293,-75.419,-182.120,-194.442,-240.038,-84.385,102.826,-0.126,1.001,-0.099,-0.763,0.305,-0.671,66.667,739.000,1.000
-144.572,-109.838,-74.213,-181.446,-193.997,-238.770,-83.599,106.161,-0.125,1.000,-0.093,-0.610,0.305,-0.702,66.667,740.000,1.000
-145.606,-108.958,-72.949,-181.566,-192.031,-237.463,-82.942,110.662,-0.125,0.999,-0.097,-0.610,0.336,-0.580,66.667,741.000,1.000
-146.457,-108.548,-72.312,-182.945,-190.125,-236.974,-83.282,114.700,-0.126,0.997,-0.100,-0.549,0.275,-0.702,66.667,742.000,1.000
-147.165,-109.008,-72.537,-185.453,-189.471,-237.471,-84.902,117.040,-0.126,0.995,-0.096,-0.488,0.214,-0.641,66.667,743.000,1.000
-147.928,-110.488,-73.757,-188.777,-190.579,-239.042,-87.758,117.057,-0.126,0.996,-0.098,-0.458,0.183,-0.580,66.667,744.000,1.000
-149.383,-113.219,-76.358,-192.860,-193.527,-241.895,-91.850,114.549,-0.129,0.998,-0.099,-0.427,0.031,-0.641,66.667,745.000,1.000
-152.197,-117.360,-80.784,-197.795,-198.024,-246.370,-97.108,109.868,-0.127,1.000,-0.099,-0.397,-0.031,-0.580,66.667,746.000,1.000
-156.592,-122.811,-87.138,-203.556,-203.423,-252.218,-103.092,104.130,-0.124,1.002,-0.098,-0.397,-0.122,-0.519,66.667,747.000,1.000
-162.345,-129.307,-95.167,-209.955,-209.006,-258.772,-109.073,98.796,-0.125,1.001,-0.099,-0.397,-0.214,-0.519,66.667,748.000,1.000
-168.880,-136.398,-104.292,-216.677,-214.222,-265.385,-114.428,94.832,-0.125,1.001,-0.100,-0.305,-0.183,-0.488,66.667,749.000,1.000
-175.259,-143.240,-113.467,-223.210,-218.563,-271.293,-118.855,92.412,-0.123,1.001,-0.096,-0.305,-0.336,-0.458,66.667,750.000,1.000
-180.456,-148.756,-121.405,-228.956,-221.544,-276.016,-122.407,91.120,-0.124,1.000,-0.099,-0.153,-0.305,-0.427,66.667,751.000,1.000
-183.866,-152.258,-127.171,-233.546,-223.075,-279.293,-125.506,90.181,-0.124,1.003,-0.098,-0.244,-0.336,-0.427,66.667,752.000,1.000
-185.514,-153.774,-130.524,-236.861,-223.498,-281.154,-128.547,88.996,-0.121,1.003,-0.098,-0.214,-0.366,-0.336,66.667,753.000,1.000
-185.920,-153.925,-131.813,-238.799,-223.251,-281.846,-131.299,87.684,-0.122,1.006,-0.096,-0.153,-0.366,-0.305,66.667,754.000,1.000
-185.918,-153.677,-131.807,-239.261,-222.750,-281.555,-132.945,86.850,-0.123,1.004,-0.098,-0.183,-0.397,-0.336,66.667,755.000,1.000
-186.346,-153.924,-131.440,-238.302,-222.298,-280.674,-132.754,86.945,-0.125,1.003,-0.100,-0.214,-0.427,-0.397,66.667,756.000,1.000
-187.517,-154.891,-131.242,-236.091,-221.738,-279.251,-130.563,88.139,-0.124,1.003,-0.099,-0.275,-0.397,-0.397,66.667,757.000,1.000
-188.964,-155.893,-130.994,-232.752,-220.305,-276.895,-126.661,90.606,-0.124,1.003,-0.101,-0.336,-0.397,-0.366,66.667,758.000,1.000
-189.934,-155.983,-130.130,-228.526,-217.396,-273.385,-121.643,94.289,-0.122,1.004,-0.102,-0.427,-0.519,-0.458,66.667,759.000,1.000
-190.138,-154.963,-128.516,-224.115,-213.691,-269.173,-116.632,98.165,-0.123,1.005,-0.102,-0.519,-0.488,-0.519,66.667,760.000,1.000
-189.858,-153.522,-126.677,-220.529,-210.938,-265.606,-113.206,100.380,-0.125,1.005,-0.099,-0.488,-0.519,-0.549,66.667,761.000,1.000
-189.442,-152.414,-125.191,-218.423,-210.357,-263.570,-112.448,99.712,-0.124,1.006,-0.098,-0.580,-0.488,-0.671,66.667,762.000,1.000
-188.832,-151.687,-124.086,-217.599,-211.438,-262.701,-113.965,96.771,-0.120,1.007,-0.096,-0.671,-0.366,-0.549,66.667,763.000,1.000
-187.616,-150.758,-122.918,-217.223,-212.415,-261.838,-116.158,93.511,-0.118,1.007,-0.097,-0.763,-0.397,-0.580,66.667,764.000,1.000
-185.454,-149.025,-121.290,-216.522,-211.686,-259.799,-117.433,91.711,-0.119,1.007,-0.101,-0.763,-0.549,-0.702,66.667,765.000,1.000
-182.529,-146.514,-119.317,-215.294,-208.959,-256.516,-117.203,91.762,-0.119,1.006,-0.099,-0.854,-0.366,-0.824,66.667,766.000,1.000
-179.759,-144.263,-117.795,-214.058,-205.687,-253.052,-116.247,92.252,-0.118,1.005,-0.099,-0.916,-0.275,-0.763,66.667,767.000,1.000
-178.377,-143.858,-117.814,-213.643,-204.183,-250.978,-116.151,90.827,-0.118,1.004,-0.098,-0.885,-0.305,-0.671,66.667,768.000,1.000
-178.805,-146.025,-119.716,-214.239,-205.618,-250.992,-117.887,86.278,-0.119,1.003,-0.095,-0.885,-0.122,-0.580,66.667,769.000,1.000
-180.048,-149.760,-122.526,-214.967,-208.810,-251.955,-120.808,79.897,-0.120,1.001,-0.098,-1.007,-0.122,-0.580,66.667,770.000,1.000
-180.572,-153.168,-124.826,-214.692,-211.312,-252.260,-123.281,74.377,-0.120,1.002,-0.098,-0.977,0.031,-0.641,66.667,771.000,1.000
-179.624,-154.998,-125.954,-213.129,-211.561,-251.087,-124.208,71.477,-0.118,1.000,-0.096,-0.946,0.031,-0.641,66.667,772.000,1.000
-177.529,-155.231,-126.230,-210.933,-209.766,-248.795,-123.717,70.953,-0.121,1.001,-0.099,-1.038,0.031,-0.610,66.667,773.000,1.000
-175.067,-154.634,-126.353,-209.000,-207.242,-246.383,-122.697,71.252,-0.121,1.001,-0.097,-1.007,0.000,-0.641,66.667,774.000,1.000
-172.762,-153.984,-126.719,-207.747,-205.139,-244.479,-121.865,70.966,-0.122,1.000,-0.094,-1.038,0.092,-0.702,66.667,775.000,1.000
-170.636,-153.529,-127.207,-206.886,-203.634,-243.218,-121.278,69.679,-0.123,1.000,-0.091,-1.099,0.031,-0.641,66.667,776.000,1.000
-168.528,-153.157,-127.551,-205.917,-202.316,-242.221,-120.874,67.489,-0.125,1.000,-0.096,-1.007,0.061,-0.641,66.667,777.000,1.000
-166.459,-152.781,-127.751,-204.672,-200.905,-241.136,-120.990,64.436,-0.125,1.002,-0.095,-0.977,-0.061,-0.641,66.667,778.000,1.000
-164.615,-152.405,-127.954,-203.266,-199.338,-239.796,-121.889,60.831,-0.125,1.003,-0.092,-0.946,-0.061,-0.610,66.667,779.000,1.000
-163.120,-151.979,-128.099,-201.720,-197.467,-237.795,-123.221,57.436,-0.124,1.000,-0.092,-0.793,-0.061,-0.610,66.667,780.000,1.000
-161.925,-151.346,-127.896,-199.811,-195.042,-234.875,-124.323,54.862,-0.125,1.000,-0.090,-0.824,-0.122,-0.671,66.667,781.000,1.000
-160.946,-150.353,-127.128,-197.321,-192.032,-231.012,-124.825,53.067,-0.125,1.000,-0.091,-0.885,-0.275,-0.671,66.667,782.000,1.000
-160.193,-148.936,-125.912,-194.316,-188.767,-226.598,-124.735,51.560,-0.127,0.999,-0.092,-0.732,-0.366,-0.732,66.667,783.000,1.000
-159.651,-146.988,-124.517,-191.004,-185.446,-222.164,-123.995,50.176,-0.126,0.998,-0.089,-0.732,-0.397,-0.702,66.667,784.000,1.000
-159.103,-144.233,-123.002,-187.406,-181.597,-217.646,-122.073,49.652,-0.125,0.999,-0.086,-0.549,-0.458,-0.702,66.667,785.000,1.000
-158.205,-140.444,-121.213,-183.321,-176.493,-212.697,-118.330,50.948,-0.124,1.000,-0.089,-0.580,-0.549,-0.671,66.667,786.000,1.000
-156.781,-135.908,-119.063,-178.730,-170.307,-207.070,-113.012,53.749,-0.125,0.999,-0.091,-0.519,-0.702,-0.702,66.667,787.000,1.000
-154.948,-131.463,-116.679,-173.973,-164.298,-201.096,-107.458,56.238,-0.126,0.998,-0.093,-0.366,-0.641,-0.702,66.667,788.000,1.000
-152.902,-127.926,-114.234,-169.474,-159.757,-195.503,-103.083,56.592,-0.125,0.999,-0.094,-0.366,-0.610,-0.641,66.667,789.000,1.000
-150.741,-125.602,-111.774,-165.507,-157.066,-190.679,-100.422,54.364,-0.124,1.002,-0.093,-0.183,-0.641,-0.549,66.667,790.000,1.000
-148.481,-124.201,-109.231,-162.111,-155.585,-186.682,-99.012,50.620,-0.124,1.001,-0.092,-0.092,-0.671,-0.519,66.667,791.000,1.000
-145.983,-122.970,-106.400,-159.022,-154.042,-182.935,-97.845,47.117,-0.124,1.002,-0.094,-0.061,-0.641,-0.488,66.667,792.000,1.000
-142.857,-120.968,-103.038,-155.710,-151.084,-178.574,-95.956,45.276,-0.123,1.003,-0.095,-0.031,-0.732,-0.397,66.667,793.000,1.000
-138.733,-117.635,-99.180,-151.764,-146.077,-173.216,-93.015,45.415,-0.123,1.003,-0.094,0.031,-0.763,-0.427,66.667,794.000,1.000
-133.777,-113.353,-95.381,-147.361,-139.719,-167.227,-89.607,46.550,-0.125,1.004,-0.091,0.092,-0.732,-0.366,66.667,795.000,1.000
-128.706,-109.254,-92.459,-143.133,-133.552,-161.661,-86.641,47.218,-0.125,1.006,-0.094,0.153,-0.671,-0.366,66.667,796.000,1.000
-124.267,-106.411,-90.895,-139.577,-128.767,-157.162,-84.395,46.691,-0.123,1.005,-0.096,0.214,-0.702,-0.305,66.667,797.000,1.000
-120.804,-105.207,-90.561,-136.715,-125.550,-153.676,-82.338,45.285,-0.123,1.005,-0.094,0.214,-0.671,-0.244,66.667,798.000,1.000
-118.225,-105.334,-90.933,-134.264,-123.417,-150.857,-79.920,43.599,-0.124,1.007,-0.094,0.214,-0.702,-0.214,66.667,799.000,1.000
-116.194,-106.131,-91.464,-131.946,-121.792,-148.198,-77.215,41.805,-0.125,1.004,-0.094,0.183,-0.793,-0.244,66.667,800.000,1.000
-114.363,-106.948,-91.858,-129.593,-120.251,-145.475,-74.697,39.752,-0.125,1.000,-0.095,0.031,-0.671,-0.214,66.667,801.000,1.000
-112.527,-107.335,-92.041,-127.092,-118.462,-142.496,-72.698,37.427,-0.123,0.997,-0.094,0.122,-0.732,-0.275,66.667,802.000,1.000
-110.608,-106.971,-91.929,-124.250,-116.024,-139.052,-71.146,35.186,-0.123,0.993,-0.096,0.244,-0.732,-0.183,66.667,803.000,1.000
-108.634,-105.694,-91.344,-120.813,-112.618,-135.026,-69.669,33.553,-0.122,0.997,-0.096,0.519,-0.732,-0.244,66.667,804.000,1.000
-106.810,-103.753,-90.268,-116.716,-108.467,-130.385,-67.909,32.750,-0.122,1.000,-0.095,0.732,-0.641,-0.244,66.667,805.000,1.000
-105.358,-101.749,-88.965,-112.192,-104.380,-125.613,-65.825,32.354,-0.121,1.004,-0.095,0.702,-0.641,-0.214,66.667,806.000,1.000
-104.211,-100.106,-87.688,-107.636,-101.122,-121.288,-63.764,31.449,-0.123,1.004,-0.096,0.610,-0.610,-0.214,66.667,807.000,1.000
-103.029,-98.672,-86.460,-103.413,-98.778,-117.753,-62.178,29.281,-0.124,1.004,-0.098,0.580,-0.610,-0.214,66.667,808.000,1.000
-101.524,-96.882,-85.160,-99.799,-96.759,-114.896,-61.337,25.834,-0.124,1.003,-0.101,0.610,-0.549,-0.214,66.667,809.000,1.000
-99.648,-94.235,-83.661,-96.925,-94.224,-111.928,-61.237,21.850,-0.122,1.003,-0.103,0.549,-0.488,-0.214,66.667,810.000,1.000
-97.389,-90.527,-81.810,-94.571,-90.402,-108.078,-61.423,18.570,-0.120,1.001,-0.098,0.580,-0.488,-0.214,66.667,811.000,1.000
-94.579,-85.926,-79.398,-92.156,-84.984,-102.904,-60.954,17.258,-0.119,0.999,-0.099,0.671,-0.519,-0.244,66.667,812.000,1.000
-91.109,-81.075,-76.432,-89.154,-78.652,-96.779,-59.077,18.194,-0.120,0.997,-0.104,0.702,-0.458,-0.244,66.667,813.000,1.000
-87.272,-76.981,-73.333,-85.585,-73.112,-90.871,-56.065,19.955,-0.120,0.998,-0.101,0.824,-0.305,-0.275,66.667,814.000,1.000
-83.652,-74.379,-70.634,-81.895,-69.942,-86.061,-53.065,20.327,-0.120,0.999,-0.098,0.824,-0.305,-0.244,66.667,815.000,1.000
-80.569,-73.119,-68.488,-78.406,-69.245,-82.523,-51.112,18.082,-0.120,1.003,-0.100,0.763,-0.153,-0.366,66.667,816.000,1.000
-77.557,-72.240,-66.493,-74.982,-69.668,-79.631,-50.399,13.703,-0.120,1.003,-0.099,0.763,-0.336,-0.397,66.667,817.000,1.000
-73.374,-70.405,-63.806,-71.014,-69.228,-76.445,-50.098,8.979,-0.122,1.001,-0.100,0.702,-0.275,-0.488,66.667,818.000,1.000
-66.789,-66.476,-59.581,-65.816,-66.160,-72.118,-48.805,6.073,-0.123,1.002,-0.101,0.671,-0.275,-0.488,66.667,819.000,1.000
-57.720,-60.321,-53.766,-59.433,-59.917,-66.192,-45.666,6.124,-0.123,1.002,-0.101,0.671,-0.244,-0.519,66.667,820.000,1.000
-47.643,-53.143,-47.504,-52.953,-51.685,-59.292,-41.117,8.422,-0.121,1.003,-0.103,0.610,-0.336,-0.580,66.667,821.000,1.000
-38.892,-46.838,-42.456,-47.826,-43.671,-52.552,-36.443,11.110,-0.122,1.005,-0.101,0.702,-0.336,-0.763,66.667,822.000,1.000
-33.471,-42.938,-39.798,-44.935,-37.826,-47.024,-32.835,12.425,-0.119,1.004,-0.098,0.610,-0.397,-0.916,66.667,823.000,1.000
-32.127,-41.996,-39.733,-44.223,-35.089,-43.393,-30.905,11.310,-0.122,1.003,-0.102,0.610,-0.305,-0.824,66.667,824.000,1.000
-34.061,-43.521,-41.533,-44.781,-35.164,-41.511,-30.581,7.634,-0.122,1.004,-0.100,0.610,-0.366,-0.793,66.667,825.000,1.000
-37.360,-46.237,-43.865,-45.165,-36.746,-40.581,-31.111,2.288,-0.122,1.003,-0.100,0.702,-0.427,-0.793,66.667,826.000,1.000
-40.006,-48.666,-45.333,-43.988,-38.259,-39.416,-31.361,-3.169,-0.124,1.003,-0.102,0.488,-0.488,-0.732,66.667,827.000,1.000
-40.854,-49.757,-45.120,-40.526,-38.530,-37.190,-30.286,-7.160,-0.124,1.003,-0.098,0.427,-0.427,-0.763,66.667,828.000,1.000
-39.857,-49.155,-43.232,-34.955,-37.021,-33.791,-27.413,-8.783,-0.124,1.003,-0.096,0.458,-0.336,-0.793,66.667,829.000,1.000
-37.668,-47.138,-40.337,-28.264,-33.938,-29.473,-23.271,-8.432,-0.123,1.000,-0.100,0.458,-0.336,-0.671,66.667,830.000,1.000
-35.184,-44.358,-37.431,-21.882,-30.100,-24.955,-19.254,-7.645,-0.123,1.003,-0.101,0.458,-0.336,-0.671,66.667,831.000,1.000
-33.123,-41.427,-35.301,-17.043,-26.343,-20.820,-16.674,-7.915,-0.125,1.004,-0.098,0.488,-0.427,-0.641,66.667,832.000,1.000
-31.638,-38.571,-34.095,-14.214,-22.984,-17.259,-15.854,-9.636,-0.125,1.006,-0.100,0.397,-0.458,-0.580,66.667,833.000,1.000
-30.263,-35.676,-33.331,-13.010,-19.902,-14.206,-16.162,-12.181,-0.125,1.007,-0.103,0.336,-0.427,-0.580,66.667,834.000,1.000
-28.203,-32.476,-32.159,-12.440,-16.789,-11.255,-16.565,-14.489,-0.127,1.006,-0.099,0.366,-0.397,-0.610,66.667,835.000,1.000
-24.782,-28.727,-29.783,-11.302,-13.281,-8.070,-16.050,-15.567,-0.125,1.006,-0.098,0.275,-0.549,-0.427,66.667,836.000,1.000
-20.022,-24.556,-26.056,-8.864,-9.297,-4.481,-14.119,-15.079,-0.125,1.004,-0.100,0.122,-0.488,-0.427,66.667,837.000,1.000
-14.854,-20.640,-21.819,-5.380,-5.282,-0.765,-11.235,-13.712,-0.125,1.004,-0.098,0.214,-0.580,-0.397,66.667,838.000,1.000
-10.567,-17.824,-18.377,-1.836,-2.007,2.494,-8.639,-12.827,-0.124,1.003,-0.097,0.214,-0.580,-0.305,66.667,839.000,1.000
-7.867,-16.435,-16.510,0.853,-0.062,5.074,-7.398,-13.565,-0.125,1.001,-0.097,0.153,-0.580,-0.244,66.667,840.000,1.000
-6.404,-15.910,-15.941,2.493,0.656,7.105,-7.492,-16.028,-0.125,1.002,-0.096,0.122,-0.610,-0.244,66.667,841.000,1.000
-5.247,-15.175,-15.707,3.474,0.978,9.147,-7.951,-19.237,-0.125,1.003,-0.097,0.092,-0.732,-0.244,66.667,842.000,1.000
-3.782,-13.529,-15.086,4.176,1.897,11.603,-7.847,-21.985,-0.125,1.001,-0.099,0.061,-0.702,-0.153,66.667,843.000,1.000
-2.011,-11.137,-14.048,4.716,3.856,14.260,-6.999,-23.778,-0.125,1.000,-0.099,0.000,-0.732,-0.092,66.667,844.000,1.000
-0.069,-8.606,-12.867,5.246,6.646,16.832,-5.706,-24.809,-0.125,1.000,-0.099,0.000,-0.732,-0.092,66.667,845.000,1.000
2.215,-6.280,-11.566,6.159,9.881,19.241,-4.120,-25.272,-0.123,0.998,-0.101,0.031,-0.671,-0.061,66.667,846.000,1.000
5.102,-4.114,-9.891,7.811,13.305,21.885,-2.114,-25.138,-0.122,0.999,-0.100,0.061,-0.702,-0.031,66.667,847.000,1.000
8.518,-1.959,-7.654,10.278,16.866,25.166,0.474,-24.348,-0.122,0.997,-0.100,0.122,-0.732,-0.031,66.667,848.000,1.000
11.968,0.278,-4.932,13.477,20.690,29.098,3.692,-22.891,-0.121,0.997,-0.099,0.183,-0.732,-0.061,66.667,849.000,1.000
14.758,2.598,-2.020,17.314,24.837,33.549,7.442,-20.903,-0.120,0.998,-0.102,0.214,-0.732,-0.092,66.667,850.000,1.000
16.283,4.826,0.633,21.593,28.849,37.996,11.278,-19.092,-0.118,0.998,-0.103,0.336,-0.641,-0.092,66.667,851.000,1.000
16.272,6.497,2.469,25.801,31.568,41.694,14.107,-19.020,-0.119,1.000,-0.101,0.397,-0.702,-0.153,66.667,852.000,1.000
15.026,7.135,3.061,29.260,31.955,43.916,14.688,-22.171,-0.121,1.000,-0.103,0.397,-0.610,-0.153,66.667,853.000,1.000
13.545,6.879,2.583,31.673,30.295,44.504,12.869,-28.276,-0.120,0.999,-0.101,0.519,-0.549,-0.153,66.667,854.000,1.000
13.301,6.714,1.982,33.446,28.351,44.421,10.081,-34.935,-0.122,0.999,-0.103,0.458,-0.519,-0.214,66.667,855.000,1.000
15.625,7.974,2.559,35.464,28.258,45.046,8.406,-39.179,-0.123,1.001,-0.103,0.397,-0.519,-0.275,66.667,856.000,1.000
20.992,11.489,5.298,38.497,31.178,47.577,9.251,-39.329,-0.121,1.002,-0.102,0.397,-0.610,-0.366,66.667,857.000,1.000
28.596,17.082,10.301,42.680,36.805,52.383,12.712,-35.638,-0.121,1.001,-0.102,0.336,-0.610,-0.427,66.667,858.000,1.000
36.619,23.598,16.610,47.345,43.659,58.651,17.622,-29.965,-0.123,1.001,-0.100,0.488,-0.549,-0.488,66.667,859.000,1.000
43.153,29.326,22.520,51.302,49.721,64.709,21.952,-25.087,-0.123,1.002,-0.101,0.427,-0.580,-0.488,66.667,860.000,1.000
47.264,32.755,26.338,53.520,53.303,68.484,23.734,-23.460,-0.123,1.001,-0.102,0.397,-0.549,-0.458,66.667,861.000,1.000
49.390,33.297,27.232,53.707,53.773,68.895,22.178,-25.911,-0.124,1.002,-0.102,0.580,-0.641,-0.549,66.667,862.000,1.000
50.950,31.602,25.660,52.502,51.816,66.504,18.177,-31.241,-0.125,1.004,-0.100,0.458,-0.610,-0.580,66.667,863.000,1.000
53.625,29.259,23.188,51.223,49.086,63.048,13.813,-36.936,-0.124,1.002,-0.104,0.336,-0.641,-0.580,66.667,864.000,1.000
58.640,28.018,21.734,51.233,47.409,60.614,11.213,-40.457,-0.126,1.003,-0.100,0.427,-0.732,-0.641,66.667,865.000,1.000
66.302,29.000,22.610,53.281,47.934,60.382,11.524,-40.515,-0.127,1.003,-0.098,0.458,-0.702,-0.641,66.667,866.000,1.000
75.940,32.282,25.982,57.187,50.577,62.374,14.426,-37.758,-0.128,1.003,-0.100,0.488,-0.824,-0.671,66.667,867.000,1.000
86.258,37.020,30.953,62.019,54.119,65.637,18.409,-34.320,-0.125,1.003,-0.097,0.427,-1.007,-0.610,66.667,868.000,1.000
95.828,41.986,36.147,66.599,56.997,68.895,21.814,-32.346,-0.126,1.003,-0.097,0.397,-1.007,-0.549,66.667,869.000,1.000
103.387,46.142,40.389,70.032,58.345,71.508,23.885,-32.599,-0.125,1.003,-0.097,0.458,-1.099,-0.549,66.667,870.000,1.000
108.021,49.013,43.104,72.040,58.511,73.403,24.958,-34.173,-0.126,1.002,-0.099,0.366,-1.068,-0.549,66.667,871.000,1.000
109.380,50.720,44.398,72.960,58.695,74.987,25.893,-35.303,-0.125,1.001,-0.099,0.488,-1.099,-0.458,66.667,872.000,1.000
107.678,51.672,44.771,73.428,59.951,76.660,27.352,-34.692,-0.125,1.002,-0.101,0.580,-1.099,-0.275,66.667,873.000,1.000
103.343,52.030,44.594,73.814,62.057,78.334,29.237,-32.704,-0.124,1.001,-0.098,0.519,-1.190,-0.244,66.667,874.000,1.000
96.724,51.470,43.813,73.986,63.465,79.638,30.815,-31.150,-0.123,1.002,-0.099,0.549,-1.190,-0.244,66.667,875.000,1.000
88.256,49.631,42.236,73.748,62.836,80.128,31.535,-31.505,-0.121,1.002,-0.099,0.610,-1.099,-0.061,66.667,876.000,1.000
78.755,46.695,40.038,73.288,60.370,79.945,31.561,-33.609,-0.120,1.002,-0.099,0.763,-1.068,-0.092,66.667,877.000,1.000
69.346,43.358,37.734,73.054,57.338,79.616,31.443,-36.237,-0.119,1.000,-0.100,0.763,-1.068,0.031,66.667,878.000,1.000
61.016,40.325,35.748,73.195,54.693,79.424,31.428,-38.566,-0.119,1.000,-0.097,0.916,-0.977,0.031,66.667,879.000,1.000
54.248,38.074,34.240,73.382,52.664,79.488,31.326,-40.554,-0.122,0.999,-0.099,0.977,-0.977,0.153,66.667,880.000,1.000
49.049,36.990,33.305,73.209,51.437,79.802,30.946,-42.125,-0.122,0.999,-0.102,1.068,-1.007,0.183,66.667,881.000,1.000
45.113,37.224,33.012,72.504,51.359,80.500,30.409,-42.747,-0.121,0.997,-0.096,1.343,-0.977,0.244,66.667,882.000,1.000
41.936,38.369,33.170,71.318,52.526,81.549,30.076,-41.896,-0.120,0.999,-0.098,1.495,-0.977,0.275,66.667,883.000,1.000
38.876,39.408,33.181,69.688,54.458,82.406,30.152,-39.730,-0.117,1.001,-0.095,1.617,-0.946,0.275,66.667,884.000,1.000
35.187,39.046,32.173,67.384,56.143,82.317,30.261,-37.348,-0.115,1.001,-0.099,1.587,-0.916,0.153,66.667,885.000,1.000
30.336,36.513,29.536,64.110,56.609,80.583,29.829,-36.063,-0.118,1.001,-0.099,1.587,-0.946,0.153,66.667,886.000,1.000
24.605,32.346,25.654,60.084,55.747,77.292,28.907,-36.205,-0.120,1.002,-0.098,1.831,-1.038,0.061,66.667,887.000,1.000
19.234,28.280,21.911,56.234,54.527,73.357,28.292,-36.752,-0.119,1.004,-0.099,1.862,-1.007,0.122,66.667,888.000,1.000
15.759,26.185,19.879,53.713,54.422,70.226,28.924,-36.018,-0.119,1.002,-0.097,1.862,-1.007,0.092,66.667,889.000,1.000
15.041,26.966,20.370,53.161,56.515,69.660,31.255,-32.795,-0.118,1.002,-0.100,1.831,-1.038,-0.031,66.667,890.000,1.000
16.723,30.176,22.948,54.269,60.740,72.343,34.867,-27.341,-0.119,1.001,-0.103,1.892,-0.946,-0.153,66.667,891.000,1.000
